# test_inoise1 54 490 3
ID z_min z_max d E(B-V) mAB(u) mAB_err(u) mAB(B) mAB_err(B) mAB(V) mAB_err(V) mAB(r) mAB_err(r) mAB(i+) mAB_err(i+) mAB(z++) mAB_err(z++) mAB(Y) mAB_err(Y) mAB(J) mAB_err(J) mAB(H) mAB_err(H) mAB(Ks) mAB_err(Ks) mAB(IA427) mAB_err(IA427) mAB(IA464) mAB_err(IA464) mAB(IA484) mAB_err(IA484) mAB(IA505) mAB_err(IA505) mAB(IA527) mAB_err(IA527) mAB(IA574) mAB_err(IA574) mAB(IA624) mAB_err(IA624) mAB(IA679) mAB_err(IA679) mAB(IA709) mAB_err(IA709) mAB(IA738) mAB_err(IA738) mAB(IA767) mAB_err(IA767) mAB(IA827) mAB_err(IA827) mAB(NB711) mAB_err(NB711) mAB(NB816) mAB_err(NB816) mAB([3.6um]) mAB_err([3.6um]) mAB([4.5um]) mAB_err([4.5um]) mAB([5.8um]) mAB_err([5.8um]) mAB([8.0um]) mAB_err([8.0um]) mAB(CSST_NUV) mAB_err(CSST_NUV) mAB(CSST_u) mAB_err(CSST_u) mAB(CSST_g) mAB_err(CSST_g) mAB(CSST_r) mAB_err(CSST_r) mAB(CSST_i) mAB_err(CSST_i) mAB(CSST_z) mAB_err(CSST_z) mAB(CSST_y) mAB_err(CSST_y) mAB(Euclid_NISP.H) mAB_err(Euclid_NISP.H) mAB(Euclid_NISP.J) mAB_err(Euclid_NISP.J) mAB(Euclid_NISP.Y) mAB_err(Euclid_NISP.Y) mAB(Euclid_VIS.vis) mAB_err(Euclid_VIS.vis) mAB(LSST_LSST.g) mAB_err(LSST_LSST.g) mAB(LSST_LSST.i) mAB_err(LSST_LSST.i) mAB(LSST_LSST.r) mAB_err(LSST_LSST.r) mAB(LSST_LSST.u) mAB_err(LSST_LSST.u) mAB(LSST_LSST.y) mAB_err(LSST_LSST.y) mAB(LSST_LSST.z) mAB_err(LSST_LSST.z) mAB(WFIRST_WFI.F184) mAB_err(WFIRST_WFI.F184) mAB(WFIRST_WFI.Grism) mAB_err(WFIRST_WFI.Grism) mAB(WFIRST_WFI.H158) mAB_err(WFIRST_WFI.H158) mAB(WFIRST_WFI.J129) mAB_err(WFIRST_WFI.J129) mAB(WFIRST_WFI.Prism) mAB_err(WFIRST_WFI.Prism) mAB(WFIRST_WFI.R062) mAB_err(WFIRST_WFI.R062) mAB(WFIRST_WFI.W146) mAB_err(WFIRST_WFI.W146) mAB(WFIRST_WFI.Y106) mAB_err(WFIRST_WFI.Y106) mAB(WFIRST_WFI.Z087) mAB_err(WFIRST_WFI.Z087) f[0,1]_{True} sys_err0_{True} sys_err1_{True} m_cut[C0411]_{True} m_cut[C1411]_{True} logphi1_y1[C3902]_{True} logphi1_y2[C3902]_{True} logphi1_y3[C3902]_{True} logphi2_y1[C3902]_{True} logphi2_y2[C3902]_{True} logphi2_y3[C3902]_{True} logMstar_y1[C3902]_{True} logMstar_y2[C3902]_{True} logMstar_y3[C3902]_{True} alpha1[C3902]_{True} alpha2[C3902]_{True} sigma_SF[C41113]_{True} sigma_Q[C41113]_{True} fQ[C41113]_{True} Nsigma[C41113]_{True} sigma_tauV[C61203]_{True} a_star[C81403]_{True} b_star[C81403]_{True} c_star[C81403]_{True} gamma_star[C81403]_{True} sigma_logZstar[C81403]_{True} z_{True} log(age/yr)[0,1]_{True} log(tau/yr)[0,1]_{True} log(Z/Zsun)[0,1]_{True} Av_2[0,1]_{True} log(scale)[0,1]_{True} ageU(zform)/Gyr[0,1]_{True} log(ageMW/yr)[0,1]_{True} log(ZMW/Zsun)[0,1]_{True} log(CEH(0)/Zsun)[0,1]_{True} log(SFH(0)/[M_{sun}/yr])[0,1]_{True} log(SFR_100Myr/[M_{sun}/yr])[0,1]_{True} log(Mstar_formed)[0,1]_{True} log(Mstar)[0,1]_{True} log(Mstar_liv)[0,1]_{True} log(L_{unabsorbed}/[erg/s])[0,1]_{True} log(L_{absorbed}/[erg/s])[0,1]_{True}  mAB(u)_{model}_{True}  mAB(B)_{model}_{True}  mAB(V)_{model}_{True}  mAB(r)_{model}_{True}  mAB(i+)_{model}_{True}  mAB(z++)_{model}_{True}  mAB(Y)_{model}_{True}  mAB(J)_{model}_{True}  mAB(H)_{model}_{True}  mAB(Ks)_{model}_{True}  mAB(IA427)_{model}_{True}  mAB(IA464)_{model}_{True}  mAB(IA484)_{model}_{True}  mAB(IA505)_{model}_{True}  mAB(IA527)_{model}_{True}  mAB(IA574)_{model}_{True}  mAB(IA624)_{model}_{True}  mAB(IA679)_{model}_{True}  mAB(IA709)_{model}_{True}  mAB(IA738)_{model}_{True}  mAB(IA767)_{model}_{True}  mAB(IA827)_{model}_{True}  mAB(NB711)_{model}_{True}  mAB(NB816)_{model}_{True}  mAB([3.6um])_{model}_{True}  mAB([4.5um])_{model}_{True}  mAB([5.8um])_{model}_{True}  mAB([8.0um])_{model}_{True}  mAB(CSST_NUV)_{model}_{True}  mAB(CSST_u)_{model}_{True}  mAB(CSST_g)_{model}_{True}  mAB(CSST_r)_{model}_{True}  mAB(CSST_i)_{model}_{True}  mAB(CSST_z)_{model}_{True}  mAB(CSST_y)_{model}_{True}  mAB(CSST_GU)_{model}_{True}  mAB(CSST_GV)_{model}_{True}  mAB(CSST_GI)_{model}_{True}  mAB(Euclid_NISP.H)_{model}_{True}  mAB(Euclid_NISP.J)_{model}_{True}  mAB(Euclid_NISP.Y)_{model}_{True}  mAB(Euclid_VIS.vis)_{model}_{True}  mAB(LSST_LSST.g)_{model}_{True}  mAB(LSST_LSST.i)_{model}_{True}  mAB(LSST_LSST.r)_{model}_{True}  mAB(LSST_LSST.u)_{model}_{True}  mAB(LSST_LSST.y)_{model}_{True}  mAB(LSST_LSST.z)_{model}_{True}  mAB(WFIRST_WFI.F184)_{model}_{True}  mAB(WFIRST_WFI.Grism)_{model}_{True}  mAB(WFIRST_WFI.H158)_{model}_{True}  mAB(WFIRST_WFI.J129)_{model}_{True}  mAB(WFIRST_WFI.Prism)_{model}_{True}  mAB(WFIRST_WFI.R062)_{model}_{True}  mAB(WFIRST_WFI.W146)_{model}_{True}  mAB(WFIRST_WFI.Y106)_{model}_{True}  mAB(WFIRST_WFI.Z087)_{model}_{True}  flux(0,35)_{model}/uJy_{True}  flux(1,35)_{model}/uJy_{True}  flux(2,35)_{model}/uJy_{True}  flux(3,35)_{model}/uJy_{True}  flux(4,35)_{model}/uJy_{True}  flux(5,35)_{model}/uJy_{True}  flux(6,35)_{model}/uJy_{True}  flux(7,35)_{model}/uJy_{True}  flux(8,35)_{model}/uJy_{True}  flux(9,35)_{model}/uJy_{True}  flux(10,35)_{model}/uJy_{True}  flux(11,35)_{model}/uJy_{True}  flux(12,35)_{model}/uJy_{True}  flux(13,35)_{model}/uJy_{True}  flux(14,35)_{model}/uJy_{True}  flux(15,35)_{model}/uJy_{True}  flux(16,35)_{model}/uJy_{True}  flux(17,35)_{model}/uJy_{True}  flux(18,35)_{model}/uJy_{True}  flux(19,35)_{model}/uJy_{True}  flux(20,35)_{model}/uJy_{True}  flux(21,35)_{model}/uJy_{True}  flux(22,35)_{model}/uJy_{True}  flux(23,35)_{model}/uJy_{True}  flux(24,35)_{model}/uJy_{True}  flux(25,35)_{model}/uJy_{True}  flux(26,35)_{model}/uJy_{True}  flux(27,35)_{model}/uJy_{True}  flux(28,35)_{model}/uJy_{True}  flux(29,35)_{model}/uJy_{True}  flux(30,35)_{model}/uJy_{True}  flux(31,35)_{model}/uJy_{True}  flux(32,35)_{model}/uJy_{True}  flux(33,35)_{model}/uJy_{True}  flux(34,35)_{model}/uJy_{True}  flux(35,35)_{model}/uJy_{True}  flux(36,35)_{model}/uJy_{True}  flux(37,35)_{model}/uJy_{True}  flux(38,35)_{model}/uJy_{True}  flux(39,35)_{model}/uJy_{True}  flux(40,35)_{model}/uJy_{True}  flux(41,35)_{model}/uJy_{True}  flux(42,35)_{model}/uJy_{True}  flux(43,35)_{model}/uJy_{True}  flux(44,35)_{model}/uJy_{True}  flux(45,35)_{model}/uJy_{True}  flux(46,35)_{model}/uJy_{True}  flux(47,35)_{model}/uJy_{True}  flux(48,35)_{model}/uJy_{True}  flux(49,35)_{model}/uJy_{True}  flux(50,35)_{model}/uJy_{True}  flux(51,35)_{model}/uJy_{True}  flux(52,35)_{model}/uJy_{True}  flux(53,35)_{model}/uJy_{True}  flux(54,35)_{model}/uJy_{True}  flux(55,35)_{model}/uJy_{True}  flux(56,35)_{model}/uJy_{True}  flux(57,35)_{model}/uJy_{True}  flux(58,35)_{model}/uJy_{True}  flux(59,35)_{model}/uJy_{True}  flux(60,35)_{model}/uJy_{True}  flux(61,35)_{model}/uJy_{True}  flux(62,35)_{model}/uJy_{True}  flux(63,35)_{model}/uJy_{True}  flux(64,35)_{model}/uJy_{True}  flux(65,35)_{model}/uJy_{True}  flux(66,35)_{model}/uJy_{True}  flux(67,35)_{model}/uJy_{True}  flux(68,35)_{model}/uJy_{True}  flux(69,35)_{model}/uJy_{True}  flux(70,35)_{model}/uJy_{True}  flux(71,35)_{model}/uJy_{True}  flux(72,35)_{model}/uJy_{True}  flux(73,35)_{model}/uJy_{True}  flux(74,35)_{model}/uJy_{True}  flux(75,35)_{model}/uJy_{True}  flux(76,35)_{model}/uJy_{True}  flux(77,35)_{model}/uJy_{True}  flux(78,35)_{model}/uJy_{True}  flux(79,35)_{model}/uJy_{True}  flux(80,35)_{model}/uJy_{True}  flux(81,35)_{model}/uJy_{True}  flux(82,35)_{model}/uJy_{True}  flux(83,35)_{model}/uJy_{True}  flux(84,35)_{model}/uJy_{True}  flux(85,35)_{model}/uJy_{True}  flux(86,35)_{model}/uJy_{True}  flux(87,35)_{model}/uJy_{True}  flux(88,35)_{model}/uJy_{True}  flux(89,35)_{model}/uJy_{True}  flux(90,35)_{model}/uJy_{True}  flux(91,35)_{model}/uJy_{True}  flux(92,35)_{model}/uJy_{True}  flux(93,35)_{model}/uJy_{True}  flux(94,35)_{model}/uJy_{True}  flux(95,35)_{model}/uJy_{True}  flux(96,35)_{model}/uJy_{True}  flux(97,35)_{model}/uJy_{True}  flux(98,35)_{model}/uJy_{True}  flux(99,35)_{model}/uJy_{True}  flux(100,35)_{model}/uJy_{True}  flux(101,35)_{model}/uJy_{True}  flux(102,35)_{model}/uJy_{True}  flux(103,35)_{model}/uJy_{True}  flux(104,35)_{model}/uJy_{True}  flux(105,35)_{model}/uJy_{True}  flux(106,35)_{model}/uJy_{True}  flux(107,35)_{model}/uJy_{True}  flux(108,35)_{model}/uJy_{True}  flux(109,35)_{model}/uJy_{True}  flux(110,35)_{model}/uJy_{True}  flux(111,35)_{model}/uJy_{True}  flux(112,35)_{model}/uJy_{True}  flux(113,35)_{model}/uJy_{True}  flux(114,35)_{model}/uJy_{True}  flux(115,35)_{model}/uJy_{True}  flux(116,35)_{model}/uJy_{True}  flux(117,35)_{model}/uJy_{True}  flux(118,36)_{model}/uJy_{True}  flux(119,36)_{model}/uJy_{True}  flux(120,36)_{model}/uJy_{True}  flux(121,36)_{model}/uJy_{True}  flux(122,36)_{model}/uJy_{True}  flux(123,36)_{model}/uJy_{True}  flux(124,36)_{model}/uJy_{True}  flux(125,36)_{model}/uJy_{True}  flux(126,36)_{model}/uJy_{True}  flux(127,36)_{model}/uJy_{True}  flux(128,36)_{model}/uJy_{True}  flux(129,36)_{model}/uJy_{True}  flux(130,36)_{model}/uJy_{True}  flux(131,36)_{model}/uJy_{True}  flux(132,36)_{model}/uJy_{True}  flux(133,36)_{model}/uJy_{True}  flux(134,36)_{model}/uJy_{True}  flux(135,36)_{model}/uJy_{True}  flux(136,36)_{model}/uJy_{True}  flux(137,36)_{model}/uJy_{True}  flux(138,36)_{model}/uJy_{True}  flux(139,36)_{model}/uJy_{True}  flux(140,36)_{model}/uJy_{True}  flux(141,36)_{model}/uJy_{True}  flux(142,36)_{model}/uJy_{True}  flux(143,36)_{model}/uJy_{True}  flux(144,36)_{model}/uJy_{True}  flux(145,36)_{model}/uJy_{True}  flux(146,36)_{model}/uJy_{True}  flux(147,36)_{model}/uJy_{True}  flux(148,36)_{model}/uJy_{True}  flux(149,36)_{model}/uJy_{True}  flux(150,36)_{model}/uJy_{True}  flux(151,36)_{model}/uJy_{True}  flux(152,36)_{model}/uJy_{True}  flux(153,36)_{model}/uJy_{True}  flux(154,36)_{model}/uJy_{True}  flux(155,36)_{model}/uJy_{True}  flux(156,36)_{model}/uJy_{True}  flux(157,36)_{model}/uJy_{True}  flux(158,36)_{model}/uJy_{True}  flux(159,36)_{model}/uJy_{True}  flux(160,36)_{model}/uJy_{True}  flux(161,36)_{model}/uJy_{True}  flux(162,36)_{model}/uJy_{True}  flux(163,36)_{model}/uJy_{True}  flux(164,36)_{model}/uJy_{True}  flux(165,36)_{model}/uJy_{True}  flux(166,36)_{model}/uJy_{True}  flux(167,36)_{model}/uJy_{True}  flux(168,36)_{model}/uJy_{True}  flux(169,36)_{model}/uJy_{True}  flux(170,36)_{model}/uJy_{True}  flux(171,36)_{model}/uJy_{True}  flux(172,36)_{model}/uJy_{True}  flux(173,36)_{model}/uJy_{True}  flux(174,36)_{model}/uJy_{True}  flux(175,36)_{model}/uJy_{True}  flux(176,36)_{model}/uJy_{True}  flux(177,36)_{model}/uJy_{True}  flux(178,36)_{model}/uJy_{True}  flux(179,36)_{model}/uJy_{True}  flux(180,36)_{model}/uJy_{True}  flux(181,36)_{model}/uJy_{True}  flux(182,36)_{model}/uJy_{True}  flux(183,36)_{model}/uJy_{True}  flux(184,36)_{model}/uJy_{True}  flux(185,36)_{model}/uJy_{True}  flux(186,36)_{model}/uJy_{True}  flux(187,36)_{model}/uJy_{True}  flux(188,36)_{model}/uJy_{True}  flux(189,36)_{model}/uJy_{True}  flux(190,36)_{model}/uJy_{True}  flux(191,36)_{model}/uJy_{True}  flux(192,36)_{model}/uJy_{True}  flux(193,36)_{model}/uJy_{True}  flux(194,36)_{model}/uJy_{True}  flux(195,36)_{model}/uJy_{True}  flux(196,36)_{model}/uJy_{True}  flux(197,36)_{model}/uJy_{True}  flux(198,36)_{model}/uJy_{True}  flux(199,36)_{model}/uJy_{True}  flux(200,36)_{model}/uJy_{True}  flux(201,36)_{model}/uJy_{True}  flux(202,36)_{model}/uJy_{True}  flux(203,36)_{model}/uJy_{True}  flux(204,36)_{model}/uJy_{True}  flux(205,36)_{model}/uJy_{True}  flux(206,36)_{model}/uJy_{True}  flux(207,36)_{model}/uJy_{True}  flux(208,36)_{model}/uJy_{True}  flux(209,36)_{model}/uJy_{True}  flux(210,36)_{model}/uJy_{True}  flux(211,36)_{model}/uJy_{True}  flux(212,36)_{model}/uJy_{True}  flux(213,36)_{model}/uJy_{True}  flux(214,36)_{model}/uJy_{True}  flux(215,36)_{model}/uJy_{True}  flux(216,36)_{model}/uJy_{True}  flux(217,36)_{model}/uJy_{True}  flux(218,36)_{model}/uJy_{True}  flux(219,36)_{model}/uJy_{True}  flux(220,36)_{model}/uJy_{True}  flux(221,36)_{model}/uJy_{True}  flux(222,36)_{model}/uJy_{True}  flux(223,36)_{model}/uJy_{True}  flux(224,36)_{model}/uJy_{True}  flux(225,36)_{model}/uJy_{True}  flux(226,36)_{model}/uJy_{True}  flux(227,36)_{model}/uJy_{True}  flux(228,36)_{model}/uJy_{True}  flux(229,36)_{model}/uJy_{True}  flux(230,36)_{model}/uJy_{True}  flux(231,36)_{model}/uJy_{True}  flux(232,36)_{model}/uJy_{True}  flux(233,36)_{model}/uJy_{True}  flux(234,36)_{model}/uJy_{True}  flux(235,36)_{model}/uJy_{True}  flux(236,36)_{model}/uJy_{True}  flux(237,36)_{model}/uJy_{True}  flux(238,36)_{model}/uJy_{True}  flux(239,36)_{model}/uJy_{True}  flux(240,36)_{model}/uJy_{True}  flux(241,36)_{model}/uJy_{True}  flux(242,36)_{model}/uJy_{True}  flux(243,37)_{model}/uJy_{True}  flux(244,37)_{model}/uJy_{True}  flux(245,37)_{model}/uJy_{True}  flux(246,37)_{model}/uJy_{True}  flux(247,37)_{model}/uJy_{True}  flux(248,37)_{model}/uJy_{True}  flux(249,37)_{model}/uJy_{True}  flux(250,37)_{model}/uJy_{True}  flux(251,37)_{model}/uJy_{True}  flux(252,37)_{model}/uJy_{True}  flux(253,37)_{model}/uJy_{True}  flux(254,37)_{model}/uJy_{True}  flux(255,37)_{model}/uJy_{True}  flux(256,37)_{model}/uJy_{True}  flux(257,37)_{model}/uJy_{True}  flux(258,37)_{model}/uJy_{True}  flux(259,37)_{model}/uJy_{True}  flux(260,37)_{model}/uJy_{True}  flux(261,37)_{model}/uJy_{True}  flux(262,37)_{model}/uJy_{True}  flux(263,37)_{model}/uJy_{True}  flux(264,37)_{model}/uJy_{True}  flux(265,37)_{model}/uJy_{True}  flux(266,37)_{model}/uJy_{True}  flux(267,37)_{model}/uJy_{True}  flux(268,37)_{model}/uJy_{True}  flux(269,37)_{model}/uJy_{True}  flux(270,37)_{model}/uJy_{True}  flux(271,37)_{model}/uJy_{True}  flux(272,37)_{model}/uJy_{True}  flux(273,37)_{model}/uJy_{True}  flux(274,37)_{model}/uJy_{True}  flux(275,37)_{model}/uJy_{True}  flux(276,37)_{model}/uJy_{True}  flux(277,37)_{model}/uJy_{True}  flux(278,37)_{model}/uJy_{True}  flux(279,37)_{model}/uJy_{True}  flux(280,37)_{model}/uJy_{True}  flux(281,37)_{model}/uJy_{True}  flux(282,37)_{model}/uJy_{True}  flux(283,37)_{model}/uJy_{True}  flux(284,37)_{model}/uJy_{True}  flux(285,37)_{model}/uJy_{True}  flux(286,37)_{model}/uJy_{True}  flux(287,37)_{model}/uJy_{True}  flux(288,37)_{model}/uJy_{True}  flux(289,37)_{model}/uJy_{True}  flux(290,37)_{model}/uJy_{True}  flux(291,37)_{model}/uJy_{True}  flux(292,37)_{model}/uJy_{True}  flux(293,37)_{model}/uJy_{True}  flux(294,37)_{model}/uJy_{True}  flux(295,37)_{model}/uJy_{True}  flux(296,37)_{model}/uJy_{True}  flux(297,37)_{model}/uJy_{True}  flux(298,37)_{model}/uJy_{True}  flux(299,37)_{model}/uJy_{True}  flux(300,37)_{model}/uJy_{True}  flux(301,37)_{model}/uJy_{True}  flux(302,37)_{model}/uJy_{True}  flux(303,37)_{model}/uJy_{True}  flux(304,37)_{model}/uJy_{True}  flux(305,37)_{model}/uJy_{True}  flux(306,37)_{model}/uJy_{True}  flux(307,37)_{model}/uJy_{True}  flux(308,37)_{model}/uJy_{True}  flux(309,37)_{model}/uJy_{True}  flux(310,37)_{model}/uJy_{True}  flux(311,37)_{model}/uJy_{True}  flux(312,37)_{model}/uJy_{True}  flux(313,37)_{model}/uJy_{True}  flux(314,37)_{model}/uJy_{True}  flux(315,37)_{model}/uJy_{True}  flux(316,37)_{model}/uJy_{True}  flux(317,37)_{model}/uJy_{True}  flux(318,37)_{model}/uJy_{True}  flux(319,37)_{model}/uJy_{True}  flux(320,37)_{model}/uJy_{True}  flux(321,37)_{model}/uJy_{True}  flux(322,37)_{model}/uJy_{True}  flux(323,37)_{model}/uJy_{True}  flux(324,37)_{model}/uJy_{True}  flux(325,37)_{model}/uJy_{True}  flux(326,37)_{model}/uJy_{True}  flux(327,37)_{model}/uJy_{True}  flux(328,37)_{model}/uJy_{True}  flux(329,37)_{model}/uJy_{True}  flux(330,37)_{model}/uJy_{True}  flux(331,37)_{model}/uJy_{True}  flux(332,37)_{model}/uJy_{True}  flux(333,37)_{model}/uJy_{True}  flux(334,37)_{model}/uJy_{True}  flux(335,37)_{model}/uJy_{True}  flux(336,37)_{model}/uJy_{True}  flux(337,37)_{model}/uJy_{True}  flux(338,37)_{model}/uJy_{True}  flux(339,37)_{model}/uJy_{True}  flux(340,37)_{model}/uJy_{True}  flux(341,37)_{model}/uJy_{True}  flux(342,37)_{model}/uJy_{True}  flux(343,37)_{model}/uJy_{True}  flux(344,37)_{model}/uJy_{True}  flux(345,37)_{model}/uJy_{True}  flux(346,37)_{model}/uJy_{True}  flux(347,37)_{model}/uJy_{True}  flux(348,37)_{model}/uJy_{True}  flux(349,37)_{model}/uJy_{True}  flux(350,37)_{model}/uJy_{True}  flux(351,37)_{model}/uJy_{True}  flux(352,37)_{model}/uJy_{True}  flux(353,37)_{model}/uJy_{True}  flux(354,37)_{model}/uJy_{True}  flux(355,37)_{model}/uJy_{True}  flux(356,37)_{model}/uJy_{True}  flux(357,37)_{model}/uJy_{True}  flux(358,37)_{model}/uJy_{True}  flux(359,37)_{model}/uJy_{True}  flux(360,37)_{model}/uJy_{True}  flux(361,37)_{model}/uJy_{True}  flux(362,37)_{model}/uJy_{True}  flux(363,37)_{model}/uJy_{True}  flux(364,37)_{model}/uJy_{True}  flux(365,37)_{model}/uJy_{True}  flux(366,37)_{model}/uJy_{True}  flux(367,37)_{model}/uJy_{True}  flux(368,37)_{model}/uJy_{True} loglike[C0411,0]_{True} loglike[C1411,0]_{True} logphistar1[C3902,0]_{True} logphistar2[C3902,1]_{True} logMstar[C3902,2]_{True} phi[C3902,3]_{True} dVc[C3902,4]_{True} loglike[C3902,5]_{True} logSFR[C41113,0]_{True} fP[C41113,1]_{True} loglike[C41113,2]_{True} log(SFR0)[C61203,0]_{True} mu_{tauV}[C61203,1]_{True} tauV[C61203,2]_{True} loglike[C61203,3]_{True} <SFR>[C71303,0]_{True} loglike[C71303,1]_{True} logZstar(10)[C81403,0]_{True} logZstar_{mean}[C81403,1]_{True} [Fe/H][C81403,2]_{True} loglike[C81403,3]_{True} Nw_CSST_GU Nw_CSST_GV Nw_CSST_GI w_CSST_GU0 f_CSST_GU0 e_CSST_GU0 s_CSST_GU0 w_CSST_GU1 f_CSST_GU1 e_CSST_GU1 s_CSST_GU1 w_CSST_GU2 f_CSST_GU2 e_CSST_GU2 s_CSST_GU2 w_CSST_GU3 f_CSST_GU3 e_CSST_GU3 s_CSST_GU3 w_CSST_GU4 f_CSST_GU4 e_CSST_GU4 s_CSST_GU4 w_CSST_GU5 f_CSST_GU5 e_CSST_GU5 s_CSST_GU5 w_CSST_GU6 f_CSST_GU6 e_CSST_GU6 s_CSST_GU6 w_CSST_GU7 f_CSST_GU7 e_CSST_GU7 s_CSST_GU7 w_CSST_GU8 f_CSST_GU8 e_CSST_GU8 s_CSST_GU8 w_CSST_GU9 f_CSST_GU9 e_CSST_GU9 s_CSST_GU9 w_CSST_GU10 f_CSST_GU10 e_CSST_GU10 s_CSST_GU10 w_CSST_GU11 f_CSST_GU11 e_CSST_GU11 s_CSST_GU11 w_CSST_GU12 f_CSST_GU12 e_CSST_GU12 s_CSST_GU12 w_CSST_GU13 f_CSST_GU13 e_CSST_GU13 s_CSST_GU13 w_CSST_GU14 f_CSST_GU14 e_CSST_GU14 s_CSST_GU14 w_CSST_GU15 f_CSST_GU15 e_CSST_GU15 s_CSST_GU15 w_CSST_GU16 f_CSST_GU16 e_CSST_GU16 s_CSST_GU16 w_CSST_GU17 f_CSST_GU17 e_CSST_GU17 s_CSST_GU17 w_CSST_GU18 f_CSST_GU18 e_CSST_GU18 s_CSST_GU18 w_CSST_GU19 f_CSST_GU19 e_CSST_GU19 s_CSST_GU19 w_CSST_GU20 f_CSST_GU20 e_CSST_GU20 s_CSST_GU20 w_CSST_GU21 f_CSST_GU21 e_CSST_GU21 s_CSST_GU21 w_CSST_GU22 f_CSST_GU22 e_CSST_GU22 s_CSST_GU22 w_CSST_GU23 f_CSST_GU23 e_CSST_GU23 s_CSST_GU23 w_CSST_GU24 f_CSST_GU24 e_CSST_GU24 s_CSST_GU24 w_CSST_GU25 f_CSST_GU25 e_CSST_GU25 s_CSST_GU25 w_CSST_GU26 f_CSST_GU26 e_CSST_GU26 s_CSST_GU26 w_CSST_GU27 f_CSST_GU27 e_CSST_GU27 s_CSST_GU27 w_CSST_GU28 f_CSST_GU28 e_CSST_GU28 s_CSST_GU28 w_CSST_GU29 f_CSST_GU29 e_CSST_GU29 s_CSST_GU29 w_CSST_GU30 f_CSST_GU30 e_CSST_GU30 s_CSST_GU30 w_CSST_GU31 f_CSST_GU31 e_CSST_GU31 s_CSST_GU31 w_CSST_GU32 f_CSST_GU32 e_CSST_GU32 s_CSST_GU32 w_CSST_GU33 f_CSST_GU33 e_CSST_GU33 s_CSST_GU33 w_CSST_GU34 f_CSST_GU34 e_CSST_GU34 s_CSST_GU34 w_CSST_GU35 f_CSST_GU35 e_CSST_GU35 s_CSST_GU35 w_CSST_GU36 f_CSST_GU36 e_CSST_GU36 s_CSST_GU36 w_CSST_GU37 f_CSST_GU37 e_CSST_GU37 s_CSST_GU37 w_CSST_GU38 f_CSST_GU38 e_CSST_GU38 s_CSST_GU38 w_CSST_GU39 f_CSST_GU39 e_CSST_GU39 s_CSST_GU39 w_CSST_GU40 f_CSST_GU40 e_CSST_GU40 s_CSST_GU40 w_CSST_GU41 f_CSST_GU41 e_CSST_GU41 s_CSST_GU41 w_CSST_GU42 f_CSST_GU42 e_CSST_GU42 s_CSST_GU42 w_CSST_GU43 f_CSST_GU43 e_CSST_GU43 s_CSST_GU43 w_CSST_GU44 f_CSST_GU44 e_CSST_GU44 s_CSST_GU44 w_CSST_GU45 f_CSST_GU45 e_CSST_GU45 s_CSST_GU45 w_CSST_GU46 f_CSST_GU46 e_CSST_GU46 s_CSST_GU46 w_CSST_GU47 f_CSST_GU47 e_CSST_GU47 s_CSST_GU47 w_CSST_GU48 f_CSST_GU48 e_CSST_GU48 s_CSST_GU48 w_CSST_GU49 f_CSST_GU49 e_CSST_GU49 s_CSST_GU49 w_CSST_GU50 f_CSST_GU50 e_CSST_GU50 s_CSST_GU50 w_CSST_GU51 f_CSST_GU51 e_CSST_GU51 s_CSST_GU51 w_CSST_GU52 f_CSST_GU52 e_CSST_GU52 s_CSST_GU52 w_CSST_GU53 f_CSST_GU53 e_CSST_GU53 s_CSST_GU53 w_CSST_GU54 f_CSST_GU54 e_CSST_GU54 s_CSST_GU54 w_CSST_GU55 f_CSST_GU55 e_CSST_GU55 s_CSST_GU55 w_CSST_GU56 f_CSST_GU56 e_CSST_GU56 s_CSST_GU56 w_CSST_GU57 f_CSST_GU57 e_CSST_GU57 s_CSST_GU57 w_CSST_GU58 f_CSST_GU58 e_CSST_GU58 s_CSST_GU58 w_CSST_GU59 f_CSST_GU59 e_CSST_GU59 s_CSST_GU59 w_CSST_GU60 f_CSST_GU60 e_CSST_GU60 s_CSST_GU60 w_CSST_GU61 f_CSST_GU61 e_CSST_GU61 s_CSST_GU61 w_CSST_GU62 f_CSST_GU62 e_CSST_GU62 s_CSST_GU62 w_CSST_GU63 f_CSST_GU63 e_CSST_GU63 s_CSST_GU63 w_CSST_GU64 f_CSST_GU64 e_CSST_GU64 s_CSST_GU64 w_CSST_GU65 f_CSST_GU65 e_CSST_GU65 s_CSST_GU65 w_CSST_GU66 f_CSST_GU66 e_CSST_GU66 s_CSST_GU66 w_CSST_GU67 f_CSST_GU67 e_CSST_GU67 s_CSST_GU67 w_CSST_GU68 f_CSST_GU68 e_CSST_GU68 s_CSST_GU68 w_CSST_GU69 f_CSST_GU69 e_CSST_GU69 s_CSST_GU69 w_CSST_GU70 f_CSST_GU70 e_CSST_GU70 s_CSST_GU70 w_CSST_GU71 f_CSST_GU71 e_CSST_GU71 s_CSST_GU71 w_CSST_GU72 f_CSST_GU72 e_CSST_GU72 s_CSST_GU72 w_CSST_GU73 f_CSST_GU73 e_CSST_GU73 s_CSST_GU73 w_CSST_GU74 f_CSST_GU74 e_CSST_GU74 s_CSST_GU74 w_CSST_GU75 f_CSST_GU75 e_CSST_GU75 s_CSST_GU75 w_CSST_GU76 f_CSST_GU76 e_CSST_GU76 s_CSST_GU76 w_CSST_GU77 f_CSST_GU77 e_CSST_GU77 s_CSST_GU77 w_CSST_GU78 f_CSST_GU78 e_CSST_GU78 s_CSST_GU78 w_CSST_GU79 f_CSST_GU79 e_CSST_GU79 s_CSST_GU79 w_CSST_GU80 f_CSST_GU80 e_CSST_GU80 s_CSST_GU80 w_CSST_GU81 f_CSST_GU81 e_CSST_GU81 s_CSST_GU81 w_CSST_GU82 f_CSST_GU82 e_CSST_GU82 s_CSST_GU82 w_CSST_GU83 f_CSST_GU83 e_CSST_GU83 s_CSST_GU83 w_CSST_GU84 f_CSST_GU84 e_CSST_GU84 s_CSST_GU84 w_CSST_GU85 f_CSST_GU85 e_CSST_GU85 s_CSST_GU85 w_CSST_GU86 f_CSST_GU86 e_CSST_GU86 s_CSST_GU86 w_CSST_GU87 f_CSST_GU87 e_CSST_GU87 s_CSST_GU87 w_CSST_GU88 f_CSST_GU88 e_CSST_GU88 s_CSST_GU88 w_CSST_GU89 f_CSST_GU89 e_CSST_GU89 s_CSST_GU89 w_CSST_GU90 f_CSST_GU90 e_CSST_GU90 s_CSST_GU90 w_CSST_GU91 f_CSST_GU91 e_CSST_GU91 s_CSST_GU91 w_CSST_GU92 f_CSST_GU92 e_CSST_GU92 s_CSST_GU92 w_CSST_GU93 f_CSST_GU93 e_CSST_GU93 s_CSST_GU93 w_CSST_GU94 f_CSST_GU94 e_CSST_GU94 s_CSST_GU94 w_CSST_GU95 f_CSST_GU95 e_CSST_GU95 s_CSST_GU95 w_CSST_GU96 f_CSST_GU96 e_CSST_GU96 s_CSST_GU96 w_CSST_GU97 f_CSST_GU97 e_CSST_GU97 s_CSST_GU97 w_CSST_GU98 f_CSST_GU98 e_CSST_GU98 s_CSST_GU98 w_CSST_GU99 f_CSST_GU99 e_CSST_GU99 s_CSST_GU99 w_CSST_GU100 f_CSST_GU100 e_CSST_GU100 s_CSST_GU100 w_CSST_GU101 f_CSST_GU101 e_CSST_GU101 s_CSST_GU101 w_CSST_GU102 f_CSST_GU102 e_CSST_GU102 s_CSST_GU102 w_CSST_GU103 f_CSST_GU103 e_CSST_GU103 s_CSST_GU103 w_CSST_GU104 f_CSST_GU104 e_CSST_GU104 s_CSST_GU104 w_CSST_GU105 f_CSST_GU105 e_CSST_GU105 s_CSST_GU105 w_CSST_GU106 f_CSST_GU106 e_CSST_GU106 s_CSST_GU106 w_CSST_GU107 f_CSST_GU107 e_CSST_GU107 s_CSST_GU107 w_CSST_GU108 f_CSST_GU108 e_CSST_GU108 s_CSST_GU108 w_CSST_GU109 f_CSST_GU109 e_CSST_GU109 s_CSST_GU109 w_CSST_GU110 f_CSST_GU110 e_CSST_GU110 s_CSST_GU110 w_CSST_GU111 f_CSST_GU111 e_CSST_GU111 s_CSST_GU111 w_CSST_GU112 f_CSST_GU112 e_CSST_GU112 s_CSST_GU112 w_CSST_GU113 f_CSST_GU113 e_CSST_GU113 s_CSST_GU113 w_CSST_GU114 f_CSST_GU114 e_CSST_GU114 s_CSST_GU114 w_CSST_GU115 f_CSST_GU115 e_CSST_GU115 s_CSST_GU115 w_CSST_GU116 f_CSST_GU116 e_CSST_GU116 s_CSST_GU116 w_CSST_GU117 f_CSST_GU117 e_CSST_GU117 s_CSST_GU117 w_CSST_GV0 f_CSST_GV0 e_CSST_GV0 s_CSST_GV0 w_CSST_GV1 f_CSST_GV1 e_CSST_GV1 s_CSST_GV1 w_CSST_GV2 f_CSST_GV2 e_CSST_GV2 s_CSST_GV2 w_CSST_GV3 f_CSST_GV3 e_CSST_GV3 s_CSST_GV3 w_CSST_GV4 f_CSST_GV4 e_CSST_GV4 s_CSST_GV4 w_CSST_GV5 f_CSST_GV5 e_CSST_GV5 s_CSST_GV5 w_CSST_GV6 f_CSST_GV6 e_CSST_GV6 s_CSST_GV6 w_CSST_GV7 f_CSST_GV7 e_CSST_GV7 s_CSST_GV7 w_CSST_GV8 f_CSST_GV8 e_CSST_GV8 s_CSST_GV8 w_CSST_GV9 f_CSST_GV9 e_CSST_GV9 s_CSST_GV9 w_CSST_GV10 f_CSST_GV10 e_CSST_GV10 s_CSST_GV10 w_CSST_GV11 f_CSST_GV11 e_CSST_GV11 s_CSST_GV11 w_CSST_GV12 f_CSST_GV12 e_CSST_GV12 s_CSST_GV12 w_CSST_GV13 f_CSST_GV13 e_CSST_GV13 s_CSST_GV13 w_CSST_GV14 f_CSST_GV14 e_CSST_GV14 s_CSST_GV14 w_CSST_GV15 f_CSST_GV15 e_CSST_GV15 s_CSST_GV15 w_CSST_GV16 f_CSST_GV16 e_CSST_GV16 s_CSST_GV16 w_CSST_GV17 f_CSST_GV17 e_CSST_GV17 s_CSST_GV17 w_CSST_GV18 f_CSST_GV18 e_CSST_GV18 s_CSST_GV18 w_CSST_GV19 f_CSST_GV19 e_CSST_GV19 s_CSST_GV19 w_CSST_GV20 f_CSST_GV20 e_CSST_GV20 s_CSST_GV20 w_CSST_GV21 f_CSST_GV21 e_CSST_GV21 s_CSST_GV21 w_CSST_GV22 f_CSST_GV22 e_CSST_GV22 s_CSST_GV22 w_CSST_GV23 f_CSST_GV23 e_CSST_GV23 s_CSST_GV23 w_CSST_GV24 f_CSST_GV24 e_CSST_GV24 s_CSST_GV24 w_CSST_GV25 f_CSST_GV25 e_CSST_GV25 s_CSST_GV25 w_CSST_GV26 f_CSST_GV26 e_CSST_GV26 s_CSST_GV26 w_CSST_GV27 f_CSST_GV27 e_CSST_GV27 s_CSST_GV27 w_CSST_GV28 f_CSST_GV28 e_CSST_GV28 s_CSST_GV28 w_CSST_GV29 f_CSST_GV29 e_CSST_GV29 s_CSST_GV29 w_CSST_GV30 f_CSST_GV30 e_CSST_GV30 s_CSST_GV30 w_CSST_GV31 f_CSST_GV31 e_CSST_GV31 s_CSST_GV31 w_CSST_GV32 f_CSST_GV32 e_CSST_GV32 s_CSST_GV32 w_CSST_GV33 f_CSST_GV33 e_CSST_GV33 s_CSST_GV33 w_CSST_GV34 f_CSST_GV34 e_CSST_GV34 s_CSST_GV34 w_CSST_GV35 f_CSST_GV35 e_CSST_GV35 s_CSST_GV35 w_CSST_GV36 f_CSST_GV36 e_CSST_GV36 s_CSST_GV36 w_CSST_GV37 f_CSST_GV37 e_CSST_GV37 s_CSST_GV37 w_CSST_GV38 f_CSST_GV38 e_CSST_GV38 s_CSST_GV38 w_CSST_GV39 f_CSST_GV39 e_CSST_GV39 s_CSST_GV39 w_CSST_GV40 f_CSST_GV40 e_CSST_GV40 s_CSST_GV40 w_CSST_GV41 f_CSST_GV41 e_CSST_GV41 s_CSST_GV41 w_CSST_GV42 f_CSST_GV42 e_CSST_GV42 s_CSST_GV42 w_CSST_GV43 f_CSST_GV43 e_CSST_GV43 s_CSST_GV43 w_CSST_GV44 f_CSST_GV44 e_CSST_GV44 s_CSST_GV44 w_CSST_GV45 f_CSST_GV45 e_CSST_GV45 s_CSST_GV45 w_CSST_GV46 f_CSST_GV46 e_CSST_GV46 s_CSST_GV46 w_CSST_GV47 f_CSST_GV47 e_CSST_GV47 s_CSST_GV47 w_CSST_GV48 f_CSST_GV48 e_CSST_GV48 s_CSST_GV48 w_CSST_GV49 f_CSST_GV49 e_CSST_GV49 s_CSST_GV49 w_CSST_GV50 f_CSST_GV50 e_CSST_GV50 s_CSST_GV50 w_CSST_GV51 f_CSST_GV51 e_CSST_GV51 s_CSST_GV51 w_CSST_GV52 f_CSST_GV52 e_CSST_GV52 s_CSST_GV52 w_CSST_GV53 f_CSST_GV53 e_CSST_GV53 s_CSST_GV53 w_CSST_GV54 f_CSST_GV54 e_CSST_GV54 s_CSST_GV54 w_CSST_GV55 f_CSST_GV55 e_CSST_GV55 s_CSST_GV55 w_CSST_GV56 f_CSST_GV56 e_CSST_GV56 s_CSST_GV56 w_CSST_GV57 f_CSST_GV57 e_CSST_GV57 s_CSST_GV57 w_CSST_GV58 f_CSST_GV58 e_CSST_GV58 s_CSST_GV58 w_CSST_GV59 f_CSST_GV59 e_CSST_GV59 s_CSST_GV59 w_CSST_GV60 f_CSST_GV60 e_CSST_GV60 s_CSST_GV60 w_CSST_GV61 f_CSST_GV61 e_CSST_GV61 s_CSST_GV61 w_CSST_GV62 f_CSST_GV62 e_CSST_GV62 s_CSST_GV62 w_CSST_GV63 f_CSST_GV63 e_CSST_GV63 s_CSST_GV63 w_CSST_GV64 f_CSST_GV64 e_CSST_GV64 s_CSST_GV64 w_CSST_GV65 f_CSST_GV65 e_CSST_GV65 s_CSST_GV65 w_CSST_GV66 f_CSST_GV66 e_CSST_GV66 s_CSST_GV66 w_CSST_GV67 f_CSST_GV67 e_CSST_GV67 s_CSST_GV67 w_CSST_GV68 f_CSST_GV68 e_CSST_GV68 s_CSST_GV68 w_CSST_GV69 f_CSST_GV69 e_CSST_GV69 s_CSST_GV69 w_CSST_GV70 f_CSST_GV70 e_CSST_GV70 s_CSST_GV70 w_CSST_GV71 f_CSST_GV71 e_CSST_GV71 s_CSST_GV71 w_CSST_GV72 f_CSST_GV72 e_CSST_GV72 s_CSST_GV72 w_CSST_GV73 f_CSST_GV73 e_CSST_GV73 s_CSST_GV73 w_CSST_GV74 f_CSST_GV74 e_CSST_GV74 s_CSST_GV74 w_CSST_GV75 f_CSST_GV75 e_CSST_GV75 s_CSST_GV75 w_CSST_GV76 f_CSST_GV76 e_CSST_GV76 s_CSST_GV76 w_CSST_GV77 f_CSST_GV77 e_CSST_GV77 s_CSST_GV77 w_CSST_GV78 f_CSST_GV78 e_CSST_GV78 s_CSST_GV78 w_CSST_GV79 f_CSST_GV79 e_CSST_GV79 s_CSST_GV79 w_CSST_GV80 f_CSST_GV80 e_CSST_GV80 s_CSST_GV80 w_CSST_GV81 f_CSST_GV81 e_CSST_GV81 s_CSST_GV81 w_CSST_GV82 f_CSST_GV82 e_CSST_GV82 s_CSST_GV82 w_CSST_GV83 f_CSST_GV83 e_CSST_GV83 s_CSST_GV83 w_CSST_GV84 f_CSST_GV84 e_CSST_GV84 s_CSST_GV84 w_CSST_GV85 f_CSST_GV85 e_CSST_GV85 s_CSST_GV85 w_CSST_GV86 f_CSST_GV86 e_CSST_GV86 s_CSST_GV86 w_CSST_GV87 f_CSST_GV87 e_CSST_GV87 s_CSST_GV87 w_CSST_GV88 f_CSST_GV88 e_CSST_GV88 s_CSST_GV88 w_CSST_GV89 f_CSST_GV89 e_CSST_GV89 s_CSST_GV89 w_CSST_GV90 f_CSST_GV90 e_CSST_GV90 s_CSST_GV90 w_CSST_GV91 f_CSST_GV91 e_CSST_GV91 s_CSST_GV91 w_CSST_GV92 f_CSST_GV92 e_CSST_GV92 s_CSST_GV92 w_CSST_GV93 f_CSST_GV93 e_CSST_GV93 s_CSST_GV93 w_CSST_GV94 f_CSST_GV94 e_CSST_GV94 s_CSST_GV94 w_CSST_GV95 f_CSST_GV95 e_CSST_GV95 s_CSST_GV95 w_CSST_GV96 f_CSST_GV96 e_CSST_GV96 s_CSST_GV96 w_CSST_GV97 f_CSST_GV97 e_CSST_GV97 s_CSST_GV97 w_CSST_GV98 f_CSST_GV98 e_CSST_GV98 s_CSST_GV98 w_CSST_GV99 f_CSST_GV99 e_CSST_GV99 s_CSST_GV99 w_CSST_GV100 f_CSST_GV100 e_CSST_GV100 s_CSST_GV100 w_CSST_GV101 f_CSST_GV101 e_CSST_GV101 s_CSST_GV101 w_CSST_GV102 f_CSST_GV102 e_CSST_GV102 s_CSST_GV102 w_CSST_GV103 f_CSST_GV103 e_CSST_GV103 s_CSST_GV103 w_CSST_GV104 f_CSST_GV104 e_CSST_GV104 s_CSST_GV104 w_CSST_GV105 f_CSST_GV105 e_CSST_GV105 s_CSST_GV105 w_CSST_GV106 f_CSST_GV106 e_CSST_GV106 s_CSST_GV106 w_CSST_GV107 f_CSST_GV107 e_CSST_GV107 s_CSST_GV107 w_CSST_GV108 f_CSST_GV108 e_CSST_GV108 s_CSST_GV108 w_CSST_GV109 f_CSST_GV109 e_CSST_GV109 s_CSST_GV109 w_CSST_GV110 f_CSST_GV110 e_CSST_GV110 s_CSST_GV110 w_CSST_GV111 f_CSST_GV111 e_CSST_GV111 s_CSST_GV111 w_CSST_GV112 f_CSST_GV112 e_CSST_GV112 s_CSST_GV112 w_CSST_GV113 f_CSST_GV113 e_CSST_GV113 s_CSST_GV113 w_CSST_GV114 f_CSST_GV114 e_CSST_GV114 s_CSST_GV114 w_CSST_GV115 f_CSST_GV115 e_CSST_GV115 s_CSST_GV115 w_CSST_GV116 f_CSST_GV116 e_CSST_GV116 s_CSST_GV116 w_CSST_GV117 f_CSST_GV117 e_CSST_GV117 s_CSST_GV117 w_CSST_GV118 f_CSST_GV118 e_CSST_GV118 s_CSST_GV118 w_CSST_GV119 f_CSST_GV119 e_CSST_GV119 s_CSST_GV119 w_CSST_GV120 f_CSST_GV120 e_CSST_GV120 s_CSST_GV120 w_CSST_GV121 f_CSST_GV121 e_CSST_GV121 s_CSST_GV121 w_CSST_GV122 f_CSST_GV122 e_CSST_GV122 s_CSST_GV122 w_CSST_GV123 f_CSST_GV123 e_CSST_GV123 s_CSST_GV123 w_CSST_GV124 f_CSST_GV124 e_CSST_GV124 s_CSST_GV124 w_CSST_GI0 f_CSST_GI0 e_CSST_GI0 s_CSST_GI0 w_CSST_GI1 f_CSST_GI1 e_CSST_GI1 s_CSST_GI1 w_CSST_GI2 f_CSST_GI2 e_CSST_GI2 s_CSST_GI2 w_CSST_GI3 f_CSST_GI3 e_CSST_GI3 s_CSST_GI3 w_CSST_GI4 f_CSST_GI4 e_CSST_GI4 s_CSST_GI4 w_CSST_GI5 f_CSST_GI5 e_CSST_GI5 s_CSST_GI5 w_CSST_GI6 f_CSST_GI6 e_CSST_GI6 s_CSST_GI6 w_CSST_GI7 f_CSST_GI7 e_CSST_GI7 s_CSST_GI7 w_CSST_GI8 f_CSST_GI8 e_CSST_GI8 s_CSST_GI8 w_CSST_GI9 f_CSST_GI9 e_CSST_GI9 s_CSST_GI9 w_CSST_GI10 f_CSST_GI10 e_CSST_GI10 s_CSST_GI10 w_CSST_GI11 f_CSST_GI11 e_CSST_GI11 s_CSST_GI11 w_CSST_GI12 f_CSST_GI12 e_CSST_GI12 s_CSST_GI12 w_CSST_GI13 f_CSST_GI13 e_CSST_GI13 s_CSST_GI13 w_CSST_GI14 f_CSST_GI14 e_CSST_GI14 s_CSST_GI14 w_CSST_GI15 f_CSST_GI15 e_CSST_GI15 s_CSST_GI15 w_CSST_GI16 f_CSST_GI16 e_CSST_GI16 s_CSST_GI16 w_CSST_GI17 f_CSST_GI17 e_CSST_GI17 s_CSST_GI17 w_CSST_GI18 f_CSST_GI18 e_CSST_GI18 s_CSST_GI18 w_CSST_GI19 f_CSST_GI19 e_CSST_GI19 s_CSST_GI19 w_CSST_GI20 f_CSST_GI20 e_CSST_GI20 s_CSST_GI20 w_CSST_GI21 f_CSST_GI21 e_CSST_GI21 s_CSST_GI21 w_CSST_GI22 f_CSST_GI22 e_CSST_GI22 s_CSST_GI22 w_CSST_GI23 f_CSST_GI23 e_CSST_GI23 s_CSST_GI23 w_CSST_GI24 f_CSST_GI24 e_CSST_GI24 s_CSST_GI24 w_CSST_GI25 f_CSST_GI25 e_CSST_GI25 s_CSST_GI25 w_CSST_GI26 f_CSST_GI26 e_CSST_GI26 s_CSST_GI26 w_CSST_GI27 f_CSST_GI27 e_CSST_GI27 s_CSST_GI27 w_CSST_GI28 f_CSST_GI28 e_CSST_GI28 s_CSST_GI28 w_CSST_GI29 f_CSST_GI29 e_CSST_GI29 s_CSST_GI29 w_CSST_GI30 f_CSST_GI30 e_CSST_GI30 s_CSST_GI30 w_CSST_GI31 f_CSST_GI31 e_CSST_GI31 s_CSST_GI31 w_CSST_GI32 f_CSST_GI32 e_CSST_GI32 s_CSST_GI32 w_CSST_GI33 f_CSST_GI33 e_CSST_GI33 s_CSST_GI33 w_CSST_GI34 f_CSST_GI34 e_CSST_GI34 s_CSST_GI34 w_CSST_GI35 f_CSST_GI35 e_CSST_GI35 s_CSST_GI35 w_CSST_GI36 f_CSST_GI36 e_CSST_GI36 s_CSST_GI36 w_CSST_GI37 f_CSST_GI37 e_CSST_GI37 s_CSST_GI37 w_CSST_GI38 f_CSST_GI38 e_CSST_GI38 s_CSST_GI38 w_CSST_GI39 f_CSST_GI39 e_CSST_GI39 s_CSST_GI39 w_CSST_GI40 f_CSST_GI40 e_CSST_GI40 s_CSST_GI40 w_CSST_GI41 f_CSST_GI41 e_CSST_GI41 s_CSST_GI41 w_CSST_GI42 f_CSST_GI42 e_CSST_GI42 s_CSST_GI42 w_CSST_GI43 f_CSST_GI43 e_CSST_GI43 s_CSST_GI43 w_CSST_GI44 f_CSST_GI44 e_CSST_GI44 s_CSST_GI44 w_CSST_GI45 f_CSST_GI45 e_CSST_GI45 s_CSST_GI45 w_CSST_GI46 f_CSST_GI46 e_CSST_GI46 s_CSST_GI46 w_CSST_GI47 f_CSST_GI47 e_CSST_GI47 s_CSST_GI47 w_CSST_GI48 f_CSST_GI48 e_CSST_GI48 s_CSST_GI48 w_CSST_GI49 f_CSST_GI49 e_CSST_GI49 s_CSST_GI49 w_CSST_GI50 f_CSST_GI50 e_CSST_GI50 s_CSST_GI50 w_CSST_GI51 f_CSST_GI51 e_CSST_GI51 s_CSST_GI51 w_CSST_GI52 f_CSST_GI52 e_CSST_GI52 s_CSST_GI52 w_CSST_GI53 f_CSST_GI53 e_CSST_GI53 s_CSST_GI53 w_CSST_GI54 f_CSST_GI54 e_CSST_GI54 s_CSST_GI54 w_CSST_GI55 f_CSST_GI55 e_CSST_GI55 s_CSST_GI55 w_CSST_GI56 f_CSST_GI56 e_CSST_GI56 s_CSST_GI56 w_CSST_GI57 f_CSST_GI57 e_CSST_GI57 s_CSST_GI57 w_CSST_GI58 f_CSST_GI58 e_CSST_GI58 s_CSST_GI58 w_CSST_GI59 f_CSST_GI59 e_CSST_GI59 s_CSST_GI59 w_CSST_GI60 f_CSST_GI60 e_CSST_GI60 s_CSST_GI60 w_CSST_GI61 f_CSST_GI61 e_CSST_GI61 s_CSST_GI61 w_CSST_GI62 f_CSST_GI62 e_CSST_GI62 s_CSST_GI62 w_CSST_GI63 f_CSST_GI63 e_CSST_GI63 s_CSST_GI63 w_CSST_GI64 f_CSST_GI64 e_CSST_GI64 s_CSST_GI64 w_CSST_GI65 f_CSST_GI65 e_CSST_GI65 s_CSST_GI65 w_CSST_GI66 f_CSST_GI66 e_CSST_GI66 s_CSST_GI66 w_CSST_GI67 f_CSST_GI67 e_CSST_GI67 s_CSST_GI67 w_CSST_GI68 f_CSST_GI68 e_CSST_GI68 s_CSST_GI68 w_CSST_GI69 f_CSST_GI69 e_CSST_GI69 s_CSST_GI69 w_CSST_GI70 f_CSST_GI70 e_CSST_GI70 s_CSST_GI70 w_CSST_GI71 f_CSST_GI71 e_CSST_GI71 s_CSST_GI71 w_CSST_GI72 f_CSST_GI72 e_CSST_GI72 s_CSST_GI72 w_CSST_GI73 f_CSST_GI73 e_CSST_GI73 s_CSST_GI73 w_CSST_GI74 f_CSST_GI74 e_CSST_GI74 s_CSST_GI74 w_CSST_GI75 f_CSST_GI75 e_CSST_GI75 s_CSST_GI75 w_CSST_GI76 f_CSST_GI76 e_CSST_GI76 s_CSST_GI76 w_CSST_GI77 f_CSST_GI77 e_CSST_GI77 s_CSST_GI77 w_CSST_GI78 f_CSST_GI78 e_CSST_GI78 s_CSST_GI78 w_CSST_GI79 f_CSST_GI79 e_CSST_GI79 s_CSST_GI79 w_CSST_GI80 f_CSST_GI80 e_CSST_GI80 s_CSST_GI80 w_CSST_GI81 f_CSST_GI81 e_CSST_GI81 s_CSST_GI81 w_CSST_GI82 f_CSST_GI82 e_CSST_GI82 s_CSST_GI82 w_CSST_GI83 f_CSST_GI83 e_CSST_GI83 s_CSST_GI83 w_CSST_GI84 f_CSST_GI84 e_CSST_GI84 s_CSST_GI84 w_CSST_GI85 f_CSST_GI85 e_CSST_GI85 s_CSST_GI85 w_CSST_GI86 f_CSST_GI86 e_CSST_GI86 s_CSST_GI86 w_CSST_GI87 f_CSST_GI87 e_CSST_GI87 s_CSST_GI87 w_CSST_GI88 f_CSST_GI88 e_CSST_GI88 s_CSST_GI88 w_CSST_GI89 f_CSST_GI89 e_CSST_GI89 s_CSST_GI89 w_CSST_GI90 f_CSST_GI90 e_CSST_GI90 s_CSST_GI90 w_CSST_GI91 f_CSST_GI91 e_CSST_GI91 s_CSST_GI91 w_CSST_GI92 f_CSST_GI92 e_CSST_GI92 s_CSST_GI92 w_CSST_GI93 f_CSST_GI93 e_CSST_GI93 s_CSST_GI93 w_CSST_GI94 f_CSST_GI94 e_CSST_GI94 s_CSST_GI94 w_CSST_GI95 f_CSST_GI95 e_CSST_GI95 s_CSST_GI95 w_CSST_GI96 f_CSST_GI96 e_CSST_GI96 s_CSST_GI96 w_CSST_GI97 f_CSST_GI97 e_CSST_GI97 s_CSST_GI97 w_CSST_GI98 f_CSST_GI98 e_CSST_GI98 s_CSST_GI98 w_CSST_GI99 f_CSST_GI99 e_CSST_GI99 s_CSST_GI99 w_CSST_GI100 f_CSST_GI100 e_CSST_GI100 s_CSST_GI100 w_CSST_GI101 f_CSST_GI101 e_CSST_GI101 s_CSST_GI101 w_CSST_GI102 f_CSST_GI102 e_CSST_GI102 s_CSST_GI102 w_CSST_GI103 f_CSST_GI103 e_CSST_GI103 s_CSST_GI103 w_CSST_GI104 f_CSST_GI104 e_CSST_GI104 s_CSST_GI104 w_CSST_GI105 f_CSST_GI105 e_CSST_GI105 s_CSST_GI105 w_CSST_GI106 f_CSST_GI106 e_CSST_GI106 s_CSST_GI106 w_CSST_GI107 f_CSST_GI107 e_CSST_GI107 s_CSST_GI107 w_CSST_GI108 f_CSST_GI108 e_CSST_GI108 s_CSST_GI108 w_CSST_GI109 f_CSST_GI109 e_CSST_GI109 s_CSST_GI109 w_CSST_GI110 f_CSST_GI110 e_CSST_GI110 s_CSST_GI110 w_CSST_GI111 f_CSST_GI111 e_CSST_GI111 s_CSST_GI111 w_CSST_GI112 f_CSST_GI112 e_CSST_GI112 s_CSST_GI112 w_CSST_GI113 f_CSST_GI113 e_CSST_GI113 s_CSST_GI113 w_CSST_GI114 f_CSST_GI114 e_CSST_GI114 s_CSST_GI114 w_CSST_GI115 f_CSST_GI115 e_CSST_GI115 s_CSST_GI115 w_CSST_GI116 f_CSST_GI116 e_CSST_GI116 s_CSST_GI116 w_CSST_GI117 f_CSST_GI117 e_CSST_GI117 s_CSST_GI117 w_CSST_GI118 f_CSST_GI118 e_CSST_GI118 s_CSST_GI118 w_CSST_GI119 f_CSST_GI119 e_CSST_GI119 s_CSST_GI119 w_CSST_GI120 f_CSST_GI120 e_CSST_GI120 s_CSST_GI120 w_CSST_GI121 f_CSST_GI121 e_CSST_GI121 s_CSST_GI121 w_CSST_GI122 f_CSST_GI122 e_CSST_GI122 s_CSST_GI122 w_CSST_GI123 f_CSST_GI123 e_CSST_GI123 s_CSST_GI123 w_CSST_GI124 f_CSST_GI124 e_CSST_GI124 s_CSST_GI124 w_CSST_GI125 f_CSST_GI125 e_CSST_GI125 s_CSST_GI125
0 0.198134 0.198134 0 0 15.2229 0.0194353 14.6965 0.0201949 14.129 0.0201782 14.0185 0.0199306 13.8271 0.0203173 13.633 0.0201268 13.5257 0.0201665 13.4847 0.0198336 13.5842 0.0200946 13.5528 0.0202727 15.0869 0.0201587 14.3921 0.0198248 14.2599 0.0201289 14.1636 0.0201245 14.1616 0.0198472 14.0996 0.0198381 14.0095 0.0197182 13.9875 0.0208131 13.8486 0.0191615 13.8522 0.0200425 13.8059 0.0199597 13.7561 0.0207321 13.8892 0.0200136 13.7353 0.0199977 14.1307 0.0199689 14.5168 0.0201283 14.9779 0.0196937 15.592 0.0207717 15.6327 0.0195719 15.3292 0.0196696 14.3796 0.0190542 14.0421 0.0202533 13.7987 0.0196731 13.6231 0.0198856 13.5927 0.0204983 13.5411 0.0198878 13.5195 0.0197621 13.5157 0.0202177 13.9196 0.0201613 14.4183 0.01962 13.8362 0.0201107 14.0158 0.0197889 15.3077 0.0199334 13.5475 0.0197624 13.6806 0.0202998 13.5218 0.0198073 13.5054 0.01955 13.5837 0.0201164 13.5123 0.0200268 13.5452 0.0195102 14.0061 0.0199152 13.5597 0.0205114 13.5061 0.0199233 13.695 0.0203129 1 0 0 24.7 25 -2.44 -3.08 -4.14 -2.89 -3.29 -3.51 10.79 10.88 10.84 -0.28 -1.48 0.3 1 -1 3 0.5 0.67 -0.5 -1.04 0.4 0.1 0.198134 8.28392 6.91695 -2.12987 0.917243 11.9305 10.8627 8.25958 -2.12987 -2.12987 -5.10662 -0.931477 11.9305 11.7842 11.7359 46.5322 46.0125 15.254 14.6859 14.1193 14.0223 13.81 13.6261 13.5167 13.4938 13.5791 13.5381 15.0784 14.4016 14.2529 14.1568 14.1699 14.1085 14.0249 13.9443 13.8951 13.8499 13.8081 13.7171 13.8885 13.7354 14.1324 14.5099 14.9947 15.5512 15.6562 15.3473 14.4322 14.0284 13.8165 13.6293 13.566 793.032 793.032 793.032 13.5472 13.5325 13.5039 13.9109 14.4391 13.8302 14.0273 15.3113 13.5604 13.6644 13.5323 13.5302 13.5774 13.5108 13.5721 14.0107 13.5323 13.5103 13.6782 1789.57 1800.57 1806.67 1794.35 1808.11 1832.25 1839.28 1836.09 1828.97 1865.7 1858.13 1867.98 1890.1 1898.49 1886.98 1909.48 1895.27 1901.78 1920.39 1940.15 1934.32 1955.03 1946.43 1972.07 1977.47 1993.69 1978.24 1997.1 2002.38 2007.4 2051.1 2005.28 2069.36 2094.31 2060.19 2056.04 2082.14 2099.17 2125.57 2145.96 2149.69 2151.85 2161.08 2170.17 2242.44 2252.99 2249.74 2279.18 2277.65 2289.92 2278.03 2292.1 2293.25 2278.38 2318.72 2365.87 2362.65 2277.12 2373.22 2425.68 2430.34 2435.2 2436.29 2464.22 2485.65 2508.18 2535.68 2554.7 2557.65 2564.16 2572.21 2591.73 2609.65 2622.78 2637.97 2654.72 2671.41 2688.14 2705.06 2719.81 2731.63 2746.15 2761.77 2777.45 2791.01 2800.6 2811.82 2824.18 2842.88 2859.2 2858.79 2870.88 2898.63 2908.27 2912.32 2943.67 2973.22 2998.6 3016.48 3029.47 3044.28 3058.88 3070.94 3081.23 3089.55 3093.35 3096.81 3121.49 3143.84 3161.99 3179.9 3197.68 3215.16 3232.99 3252.14 3270.99 3289.55 3309.64 3089.26 3094.26 3116.75 3147.98 3173.82 3199.2 3224.03 3250.91 3277.75 3305.24 3330.66 3338.69 3378.85 3379.29 3387.11 3414.33 3451.52 3475.14 3531.57 3517.23 3474.35 3560 3823.39 3904.65 4528.85 4793.21 5183.73 5744.19 6034.07 5256.17 6445.96 7063.89 6053.12 5710.48 7430.02 7527.32 7459.59 5707.41 6073.69 7587.83 7906.15 7897.23 7968.08 7897.86 7357.4 6501.68 6074.38 7786.37 7958.09 8036.18 8061.54 8069.38 8085.29 8087.34 8096.86 8093.29 8047.08 7927.99 7613.92 6806.55 6244.54 7262.58 7992.23 8079.12 8181.83 8256.65 8264.77 8212.43 8245.35 8332.35 8374.07 8342.92 8353.64 8398.52 8415.7 8418.59 8439.03 8446.18 8439.36 8472.21 8492.08 8485.47 8479.29 8544.61 8571.22 8569.3 8557.8 8544.48 8515.62 8419.85 7634.5 6864.45 7370.96 8436.8 8590.92 8591.89 8672.49 8696.64 8684.77 8656.08 8646.1 8745.28 8762.6 8813.87 8834.6 8840.58 8870.44 8869.64 8852.24 8793.71 8784.33 8828.48 8883.67 8922.19 8979.24 8960.78 8997.64 9079.53 9117.83 9065.9 9141.07 9169.57 9180.32 9188.87 9199.01 8799.44 8880.2 8945.31 8964.34 9038.04 9122.02 9094.93 9168.64 9184.4 9197.05 9237.09 9256.38 9285.7 9331.92 9410.68 9451.56 9443.56 9481.98 9535 9590.33 9658.93 9675.6 9772.93 9800.51 9837.33 9916.04 9967.51 9935.21 9925.5 10040.7 10096.4 10157.6 10211 10263.8 10352.7 10426.1 10461.4 10499.6 10487.8 10482.6 10491.9 10509.6 10498.4 10594.5 10721.4 10729 10833.8 10909.5 10970.9 10996.5 11066.1 11123.8 11118.5 11171.4 10877.8 9706.94 10942.1 11358.8 11417 11406.5 11448.6 11451.3 11488.8 11533 11601.5 11666.8 11733.5 11798.7 11895.6 11965.1 12001.5 12045.2 12094.2 12129.3 12141.3 12069.1 11990.5 11916.4 11901.8 11977.2 12060.7 12217 12350.5 12422.8 12476.3 12598 12655.6 12751.7 12760.4 12794.7 12876.2 12924.3 12940.6 13003.6 13059.3 13090 13093.3 13121.4 13139.3 13116.6 13195.8 13180.6 13230.6 13296.8 13342.3 13403.4 13436.8 13446.8 13387.9 13376.4 13425.2 13489.8 13572.4 13618.2 13639.9 13637 13616 13656 13704.9 13735.9 13731.8 13819 13866.1 13911.6 13921.2 13847 0 0 -2.43943 -2.88935 10.7898 2.29536e-06 2.54489e+09 8.67273 1.94909 0.988406 -1.3183 -0.0963379 0.2 0.844812 -1.05736 3164.59 -216.499 -0.433193 0.2805 0.0805003 -18.1586 118 125 126 0.2554 1801.02 33.2819 0.00039 0.2568 1785.97 33.4825 0.0004 0.2582 1762.14 33.594 0.0004 0.2596 1813.2 33.3691 0.0004 0.261 1818.91 33.6202 0.0004 0.2624 1871.3 34.0608 0.00041 0.2638 1866.39 34.1891 0.00041 0.2652 1828.58 34.1309 0.00041 0.2666 1806.6 34.0008 0.00041 0.268 1922.45 34.6715 0.00041 0.2694 1823.32 34.5332 0.00042 0.27081 1897.37 34.713 0.00042 0.27221 1884.83 35.1169 0.00042 0.27361 1910.08 35.2702 0.00042 0.27501 1929.27 35.0599 0.00042 0.27641 1845.56 35.471 0.00043 0.27781 1877.94 35.2115 0.00043 0.27921 1935.6 35.3304 0.00043 0.28061 1868.96 35.6702 0.00043 0.28201 1949.1 36.0312 0.00044 0.28341 1910.8 35.9247 0.00044 0.28481 1977.27 36.3031 0.00044 0.28621 1960.5 36.1459 0.00044 0.28761 1982.82 36.6145 0.00044 0.28901 1988.21 36.7132 0.00045 0.29041 1964.98 37.0096 0.00045 0.29181 1983.52 36.7273 0.00045 0.29321 1990.6 37.0721 0.00045 0.29461 2046.31 37.1686 0.00045 0.29601 2032.99 37.2603 0.00046 0.29741 2046.31 38.0592 0.00046 0.29881 1991.45 37.2215 0.00046 0.30021 2079.25 38.3933 0.00046 0.30161 2066.25 38.8497 0.00047 0.30301 2075.63 38.2256 0.00047 0.30442 2080.1 38.1497 0.00047 0.30582 2038.95 38.627 0.00047 0.30722 2115.2 38.9386 0.00047 0.30862 2169.18 39.4215 0.00048 0.31002 2162.52 39.7945 0.00048 0.31142 2215.13 39.8628 0.00048 0.31282 2162.7 39.9023 0.00048 0.31422 2188.99 40.0712 0.00049 0.31562 2169.47 40.2375 0.00049 0.31702 2187.14 41.5605 0.00049 0.31842 2297.62 41.7537 0.00049 0.31982 2267.41 41.694 0.00049 0.32122 2236.16 42.2331 0.0005 0.32262 2245.52 42.2051 0.0005 0.32402 2287.68 42.4298 0.0005 0.32542 2266.95 42.2121 0.0005 0.32682 2362.68 42.4698 0.0005 0.32822 2354.29 42.4908 0.00051 0.32962 2276.54 42.2184 0.00051 0.33102 2315.83 42.9573 0.00051 0.33242 2352.12 43.821 0.00051 0.33382 2376.3 43.762 0.00052 0.33522 2162.23 42.1954 0.00052 0.33662 2399.7 43.9557 0.00052 0.33803 2423.48 44.9168 0.00052 0.33943 2398.15 45.0023 0.00052 0.34083 2447 45.0913 0.00053 0.34223 2395.71 45.1112 0.00053 0.34363 2396.76 45.6231 0.00053 0.34503 2497.52 46.0159 0.00053 0.34643 2538.79 46.4288 0.00053 0.34783 2517.83 46.933 0.00054 0.34923 2551.53 47.2816 0.00054 0.35063 2551.28 47.3358 0.00054 0.35203 2553.43 47.4552 0.00054 0.35343 2615.58 47.6028 0.00055 0.35483 2572.55 47.9606 0.00055 0.35623 2510.06 48.2892 0.00055 0.35763 2597.1 48.53 0.00055 0.35903 2570.94 48.8086 0.00055 0.36043 2707.96 49.1158 0.00056 0.36183 2680.13 49.4218 0.00056 0.36323 2749.02 49.7287 0.00056 0.36463 2695.1 50.0391 0.00056 0.36603 2685.73 50.3097 0.00057 0.36743 2742.35 50.5264 0.00057 0.36883 2747.5 50.7928 0.00057 0.37023 2781.48 51.0794 0.00057 0.37164 2623.81 51.3671 0.00057 0.37304 2733.52 51.6159 0.00058 0.37444 2719.87 51.7919 0.00058 0.37584 2831.46 51.9977 0.00058 0.37724 2802.59 52.2245 0.00058 0.37864 2809.42 52.5676 0.00058 0.38004 2876.78 52.8671 0.00059 0.38144 2821.79 52.8596 0.00059 0.38284 2845.48 53.0814 0.00059 0.38424 2888.73 53.5907 0.00059 0.38564 2989.13 53.7677 0.0006 0.38704 2929.49 53.8421 0.0006 0.38844 2971.76 54.4175 0.0006 0.38984 2999.33 54.9598 0.0006 0.39124 3012.37 55.4257 0.0006 0.39264 2975.53 55.754 0.00061 0.39404 3071.52 55.9925 0.00061 0.39544 3081.14 56.2644 0.00061 0.39684 2905.64 56.5324 0.00061 0.39824 3149.38 56.7538 0.00061 0.39964 3089.24 56.9428 0.00062 0.40104 3163.83 57.0956 0.00062 0.40244 3005.75 57.1653 0.00062 0.40384 3145.03 57.2288 0.00062 0.40525 3116.9 57.682 0.00063 0.40665 3139.78 58.0925 0.00063 0.40805 3177.12 58.4257 0.00063 0.40945 3214.43 58.7547 0.00063 0.41085 3249.2 59.0812 0.00063 0.41225 3174.33 59.4022 0.00064 0.41365 3210.81 59.7297 0.00064 0.41505 3210.71 60.0813 0.00064 0.41645 3240.84 60.4276 0.00064 0.41785 3136.31 60.7685 0.00065 0.41925 3338.81 61.1375 0.00065 0.40099 3117.21 56.9794 0.00055 0.40298 3157.24 57.0715 0.00055 0.40498 3126.51 57.4852 0.00056 0.40697 3120.57 58.0597 0.00056 0.40897 3145.54 58.5351 0.00056 0.41097 3211.93 59.0022 0.00056 0.41296 3289.84 59.4589 0.00057 0.41496 3297.36 59.9534 0.00057 0.41696 3279.26 60.4473 0.00057 0.41895 3430.94 60.9532 0.00058 0.42095 3323.79 61.4209 0.00058 0.42294 3335.99 61.5687 0.00058 0.42494 3430.49 62.3076 0.00058 0.42694 3366.56 62.3157 0.00059 0.42893 3351.47 62.4597 0.00059 0.43093 3375.71 62.9605 0.00059 0.43293 3344.91 63.6448 0.00059 0.43492 3568.04 64.0795 0.0006 0.43692 3460.24 65.1178 0.0006 0.43891 3554.69 64.854 0.0006 0.44091 3350.45 64.065 0.00061 0.44291 3643.33 65.6411 0.00061 0.4449 3787 70.4885 0.00061 0.4469 3744.51 71.9842 0.00061 0.44889 4564.16 83.4742 0.00062 0.45089 4853.71 88.3412 0.00062 0.45289 5128.53 95.5312 0.00062 0.45488 5664.07 105.851 0.00062 0.45688 6113.6 111.189 0.00063 0.45888 5356.95 96.865 0.00063 0.46087 6424.18 118.774 0.00063 0.46287 7052.79 130.153 0.00064 0.46486 6132.57 111.54 0.00064 0.46686 5715.06 105.23 0.00064 0.46886 7400.53 136.896 0.00064 0.47085 7616.9 138.688 0.00065 0.47285 7230.76 137.441 0.00065 0.47485 5615.97 105.174 0.00065 0.47684 6083.7 111.918 0.00065 0.47884 7917.49 139.802 0.00066 0.48083 8087.19 145.665 0.00066 0.48283 7838.63 145.501 0.00066 0.48483 7760.26 146.805 0.00067 0.48682 7869.34 145.512 0.00067 0.48882 7371.41 135.559 0.00067 0.49082 6451.91 119.8 0.00067 0.49281 6169.01 111.931 0.00068 0.49481 7976 143.459 0.00068 0.4968 8017.57 146.621 0.00068 0.4988 8020.05 148.06 0.00068 0.5008 7756.42 148.527 0.00069 0.50279 8126.26 148.671 0.00069 0.50479 7955.19 148.964 0.00069 0.50678 8154.21 149.002 0.0007 0.50878 8225.55 149.177 0.0007 0.51078 8111.49 149.111 0.0007 0.51277 8220.44 148.26 0.0007 0.51477 7927.81 146.067 0.00071 0.51677 7639.81 140.283 0.00071 0.51876 6775.02 125.414 0.00071 0.52076 6229.16 115.065 0.00072 0.52275 7463.27 133.812 0.00072 0.52475 8061.46 147.25 0.00072 0.52675 7991.79 148.851 0.00072 0.52874 8441.37 150.742 0.00073 0.53074 8163.01 152.12 0.00073 0.53274 8305.27 152.27 0.00073 0.53473 8342.02 151.306 0.00073 0.53673 8193.45 151.912 0.00074 0.53872 8212.95 153.514 0.00074 0.54072 8614.02 154.283 0.00074 0.54272 8270.57 153.709 0.00075 0.54471 8404.9 153.906 0.00075 0.54671 8671.43 154.733 0.00075 0.5487 8516.73 155.049 0.00075 0.5507 8232.21 155.102 0.00076 0.5527 8487.41 155.479 0.00076 0.55469 8298.04 155.611 0.00076 0.55669 8745.33 155.485 0.00076 0.55869 8540.15 156.09 0.00077 0.56068 8517.8 156.456 0.00077 0.56268 8622.34 156.334 0.00077 0.56467 8417.38 156.221 0.00078 0.56667 8582.85 157.424 0.00078 0.56867 8299.85 157.914 0.00078 0.57066 8695.92 157.878 0.00078 0.57266 8602.34 157.666 0.00079 0.57466 8483.21 157.421 0.00079 0.57665 8430.08 156.89 0.00079 0.57865 8557.8 155.126 0.00079 0.58064 7605.62 140.662 0.0008 0.58264 6801.19 126.48 0.0008 0.58464 7188.91 135.808 0.0008 0.58663 8646.49 155.438 0.00081 0.58863 8515.93 158.276 0.00081 0.59063 8398.56 158.294 0.00081 0.59262 8342.32 159.779 0.00081 0.59462 8457.01 160.224 0.00082 0.59661 8612.57 160.005 0.00082 0.59861 8654.53 159.477 0.00082 0.60061 8609.49 159.293 0.00082 0.6026 9047.13 161.119 0.00083 0.6046 8753.62 161.438 0.00083 0.60659 9236.15 162.383 0.00083 0.60859 8714.84 162.764 0.00084 0.61059 8435.15 162.875 0.00084 0.61258 8596.25 163.425 0.00084 0.61458 9052.21 163.41 0.00084 0.61658 9151.3 163.089 0.00085 0.61857 8619.93 162.011 0.00085 0.62057 8828.68 161.839 0.00085 0.62256 8842.78 162.652 0.00085 0.62456 8736.76 163.668 0.00086 0.62656 9182.21 164.378 0.00086 0.62855 8690.01 165.428 0.00086 0.63055 9018.34 165.088 0.00087 0.63255 8952.45 165.767 0.00087 0.63454 8933.19 167.275 0.00087 0.63654 9312.45 167.981 0.00087 0.63853 8605.07 167.024 0.00088 0.64053 9037.6 168.409 0.00088 0.64253 9131.65 168.934 0.00088 0.64452 9317.65 169.132 0.00089 0.64652 9199.8 169.289 0.00089 0.64851 9387.45 169.476 0.00089 0.62138 8630.43 162.117 0.00082 0.62438 8787.82 163.604 0.00083 0.62738 8864.12 164.804 0.00083 0.63038 8767.64 165.154 0.00083 0.63338 8971.8 166.511 0.00084 0.63638 9226.26 168.058 0.00084 0.63938 9075.82 167.559 0.00085 0.64238 8950.94 168.917 0.00085 0.64538 8878.36 169.207 0.00085 0.64838 9219.26 169.44 0.00086 0.65138 9539.62 170.177 0.00086 0.65438 9332.01 170.533 0.00087 0.65738 9283.66 171.073 0.00087 0.66038 9294.87 171.924 0.00087 0.66338 9785.45 173.375 0.00088 0.66638 9178.63 174.128 0.00088 0.66938 9675.31 173.98 0.00089 0.67238 9409.58 174.688 0.00089 0.67538 9273.66 175.664 0.00089 0.67838 9869.75 176.683 0.0009 0.68138 9783.11 177.947 0.0009 0.68438 9272.43 178.254 0.00091 0.68738 9710.78 180.047 0.00091 0.69037 9866.54 180.554 0.00091 0.69337 9759.21 181.233 0.00092 0.69637 9612.17 182.682 0.00092 0.69937 9814.99 183.63 0.00093 0.70237 9701.35 183.036 0.00093 0.70537 10192.4 182.857 0.00093 0.70837 9986.93 184.979 0.00094 0.71137 9985.32 186.004 0.00094 0.71437 10072.1 187.132 0.00095 0.71737 9986.6 188.115 0.00095 0.72037 10129.9 189.087 0.00095 0.72337 10295.5 190.726 0.00096 0.72637 10608.5 192.077 0.00096 0.72937 10534.8 192.727 0.00097 0.73237 10576 193.431 0.00097 0.73538 10557.5 193.213 0.00097 0.73838 10716.5 193.118 0.00098 0.74138 10493 193.289 0.00098 0.74438 10307.3 193.615 0.00099 0.74738 10539.5 193.408 0.00099 0.75038 10652.3 195.178 0.00099 0.75338 10788.5 197.515 0.001 0.75638 10704.6 197.656 0.001 0.75938 11032.1 199.585 0.00101 0.76238 10821.2 200.98 0.00101 0.76538 11195.6 202.111 0.00101 0.76838 10928.8 202.582 0.00102 0.77138 11072.3 203.866 0.00102 0.77438 11129.1 204.929 0.00103 0.77738 10982.9 204.831 0.00103 0.78038 11303.6 205.805 0.00103 0.78338 11013.5 200.396 0.00104 0.78638 9443.87 178.831 0.00104 0.78938 11521.9 201.581 0.00104 0.79238 11495.4 209.255 0.00105 0.79538 11712.8 210.327 0.00105 0.79838 11165.7 210.135 0.00106 0.80138 11239.9 210.911 0.00106 0.80438 11278.1 210.961 0.00106 0.80738 11842.9 211.65 0.00107 0.81038 11888 212.465 0.00107 0.81338 11623.9 213.727 0.00108 0.81637 11624.5 214.929 0.00108 0.81937 12125.2 216.157 0.00108 0.82237 11876 217.359 0.00109 0.82537 11815.9 219.143 0.00109 0.82837 12179.3 220.424 0.0011 0.83137 12378.9 221.095 0.0011 0.83437 11880 221.899 0.0011 0.83737 12020.3 222.802 0.00111 0.84037 12196.7 223.448 0.00111 0.84337 11767 223.668 0.00112 0.84637 12155.3 222.34 0.00112 0.84937 11670.7 220.89 0.00112 0.85237 12252.5 219.527 0.00113 0.85537 12313.5 219.257 0.00113 0.85837 11844.1 220.646 0.00114 0.86138 12404.5 222.184 0.00114 0.86438 12324.6 225.063 0.00114 0.86738 12500.9 227.522 0.00115 0.87038 12550.9 228.854 0.00115 0.87338 12529.2 229.839 0.00116 0.87638 13058.1 232.081 0.00116 0.87938 13061.3 233.141 0.00116 0.88238 13237.2 234.912 0.00117 0.88538 12458.2 235.072 0.00117 0.88838 13382.5 235.703 0.00118 0.89138 12861.4 237.206 0.00118 0.89438 12781.3 238.092 0.00118 0.89738 12899.3 238.39 0.00119 0.90038 12673.6 239.553 0.00119 0.90338 13089 240.578 0.0012 0.90638 13010.2 241.144 0.0012 0.90938 13132.4 241.204 0.0012 0.91238 12699.1 241.721 0.00121 0.91538 13128.7 242.05 0.00121 0.91838 13073.7 241.634 0.00122 0.92138 12719.9 243.092 0.00122 0.92438 13333.2 242.811 0.00122 0.92738 13047.1 243.733 0.00123 0.93038 12991.2 244.953 0.00123 0.93338 13194.1 245.791 0.00124 0.93638 13304.6 246.915 0.00124 0.93938 13453.6 247.53 0.00124 0.94238 13498.5 247.715 0.00125 0.94537 13471.6 246.631 0.00125 0.94837 13538.1 246.418 0.00126 0.95137 13840 247.317 0.00126 0.95437 13374.9 248.507 0.00126 0.95737 13906.7 250.028 0.00127 0.96037 13862.2 250.872 0.00127 0.96337 13554.7 251.272 0.00128 0.96637 13475.7 251.218 0.00128 0.96937 13137.4 250.833 0.00128 0.97237 13695.9 251.568 0.00129 0.97537 13527.1 252.47 0.00129 0.97837 13825.5 253.04 0.0013 0.98137 13718.1 252.965 0.0013 0.98438 13979.5 254.571 0.0013 0.98738 13397.3 255.438 0.00131 0.99038 14363.4 256.276 0.00131 0.99338 13635.2 256.452 0.00132 0.99638 13723.2 255.086 0.00132
1 0.195355 0.195355 0 0 19.3447 0.0203233 18.0335 0.0193228 16.8926 0.0196353 16.402 0.0200859 15.6687 0.0197086 15.1906 0.0205964 14.847 0.0200063 14.4352 0.0194486 14.1463 0.0192687 13.902 0.0199657 18.8221 0.020524 17.7387 0.0204058 17.4212 0.0201327 17.1804 0.0197922 17.0684 0.0197151 16.7011 0.0191231 16.4384 0.020133 16.0984 0.0196973 15.9482 0.0198378 15.8263 0.0202282 15.6882 0.0198553 15.4592 0.0204993 15.9515 0.0203686 15.4353 0.0194099 14.1368 0.0201871 14.4571 0.0195718 14.9833 0.0202266 15.527 0.0200256 20.6903 0.0213151 19.6174 0.0203833 17.5586 0.0201268 16.4628 0.0201392 15.6776 0.0197134 15.1746 0.0202643 14.9547 0.0196065 14.0774 0.019897 14.4085 0.0204022 14.6971 0.0198312 15.9527 0.0201772 17.6039 0.0205056 15.7563 0.0201661 16.4299 0.0199208 19.5303 0.0203249 14.9491 0.0197797 15.2823 0.0201969 14.0346 0.0202691 14.3701 0.0202739 14.255 0.0203197 14.4852 0.0207505 14.5862 0.0196594 16.3318 0.0196025 14.3747 0.0200312 14.7848 0.0204069 15.2747 0.0198569 1 0 0 24.7 25 -2.44 -3.08 -4.14 -2.89 -3.29 -3.51 10.79 10.88 10.84 -0.28 -1.48 0.3 1 -1 3 0.5 0.67 -0.5 -1.04 0.4 0.1 0.195355 8.40466 7.11533 -1.62451 3.32744 11.9502 10.8305 8.36962 -1.62451 -1.62451 -3.64605 -1.20085 11.9502 11.7978 11.7572 46.4455 45.4117 19.3275 18.071 16.9126 16.3973 15.6846 15.1587 14.8467 14.4655 14.1867 13.9039 18.7943 17.7169 17.4141 17.1918 17.084 16.7498 16.4312 16.115 15.957 15.814 15.6961 15.4325 15.9316 15.4679 14.1267 14.4806 14.9712 15.5258 20.693 19.6059 17.5518 16.4553 15.6933 15.1604 14.9763 793.032 793.032 793.032 14.083 14.3869 14.7064 15.9431 17.5768 15.7474 16.4342 19.513 14.9612 15.2716 14.0201 14.3556 14.2378 14.4452 14.6049 16.3536 14.373 14.763 15.2825 11.8495 12.3024 12.3866 12.5204 12.8813 13.4202 13.4073 13.4721 13.9957 14.3144 14.3826 14.5981 15.2285 15.5701 15.7546 16.0481 15.486 16.5221 16.3885 16.9805 17.2268 17.1945 17.9277 18.0973 18.6606 19.183 19.6105 20.0901 20.2423 20.4536 21.0494 21.7059 22.0048 21.8944 22.1627 22.8741 23.9022 24.4936 25.2424 25.6288 25.6402 26.0775 26.9036 28.3318 29.4979 29.5551 30.4293 31.0553 31.2634 31.5512 31.6914 32.8346 31.8351 32.9385 34.4304 35.1346 33.1299 34.2157 37.5992 38.3077 38.5195 38.4365 39.9174 40.9472 41.8416 42.84 44.2239 44.6729 45.185 45.8927 46.7266 47.6622 48.5393 49.4504 50.5573 51.5672 52.4455 53.3876 54.3535 55.102 55.9519 57.0094 57.9479 58.8183 59.7066 60.6162 61.5738 62.6495 63.8474 64.5425 65.1894 66.7197 67.9732 68.7165 70.0706 71.7494 73.3281 74.8121 75.9723 77.189 78.4579 79.5853 80.683 81.7167 82.6451 83.4248 84.8266 86.5042 88.0853 89.7222 91.4472 93.0132 94.4758 95.8992 97.3566 98.9385 100.644 102.493 82.6174 83.8154 86.1825 88.4509 90.8528 93.1378 95.1989 97.2556 99.5198 102.094 104.149 106.613 109.187 110.301 112.328 115.256 117.898 120.444 124.132 124.462 125.657 140.26 149.441 167.442 192.672 205.013 235.489 265.708 247.936 263.538 317.841 327.201 236.105 324.896 360.508 366.08 326.876 252.938 374.136 408.754 420.513 427.307 431.742 423.467 379.599 328.292 394.232 455.794 469.347 476.796 481.916 487.637 492.935 498.066 502.996 506.833 507.252 497.55 454.419 413.512 433.612 533.709 546.435 558.941 570.219 578.47 583.735 588.765 599.394 611.174 615.891 620.942 629.714 640.382 645.005 656.037 663.204 670.986 679.582 687.707 694.845 698.647 709.424 719.663 728.023 735.289 741.999 747.311 745.482 695.753 624.993 609.958 763.981 790.266 800.435 814.308 829.432 839.658 843.019 847.956 862.843 872.982 883.104 894.63 901.232 911.412 919.464 927.264 934.573 943.016 955.647 966.745 976.816 989.662 996.812 1002.94 1022.58 1034.65 1039.67 1053.79 1067.81 1077.68 1087.65 1096.12 1108.58 960.196 975.919 995.479 1001.21 1027.6 1039.33 1061.64 1076.92 1091.31 1107.74 1131.33 1149.21 1167.56 1185.15 1206.33 1220.01 1240.15 1263.5 1284.07 1299.74 1320.02 1344.53 1364.88 1385.31 1404.51 1426.95 1445.4 1463.64 1489.4 1512.52 1535.65 1557.31 1576.56 1597.37 1622.79 1642.56 1663.12 1679.6 1707.39 1733.7 1764.5 1785.88 1801.61 1834.65 1818.41 1842.61 1870.48 1894.91 1914.51 1938.63 1964.92 1984.59 2006.1 2017.36 1851.8 1809.16 2090.55 2145.82 2177.16 2207.24 2238.77 2271.03 2295.64 2323.62 2347.8 2373.28 2393.72 2421.28 2445.24 2471.03 2494.29 2523.46 2544.38 2575.24 2605.32 2636.97 2676.46 2706.81 2730.11 2750.1 2770.56 2802.33 2824.88 2842.73 2866.96 2896.56 2926.24 2950.93 2967.05 3007.83 3037.91 3067.05 3094.07 3123.7 3153.39 3176.74 3202.89 3226.41 3243.55 3274.18 3293.25 3329.41 3352.05 3384.51 3418.75 3441.85 3471.55 3502 3522.26 3549.69 3580.24 3614.67 3649.92 3679.45 3706.65 3738.22 3770.48 3800.84 3829.73 3845.09 3878.8 3898.7 3928.57 3949.08 3956.99 3956.63 0 0 -2.43858 -2.88837 10.7895 1.70823e-06 2.48109e+09 8.35191 1.9605 0.988907 -1.60446 -0.363593 0.2 3.06469 -16.6387 2472.26 -169.962 -0.432349 0.286753 0.0867534 -11.4181 118 125 126 0.2554 18.2582 4.58693 0.00039 0.2568 9.052 4.58734 0.0004 0.2582 12.4404 4.58741 0.0004 0.2596 20.6869 4.58754 0.0004 0.261 8.04086 4.58788 0.0004 0.2624 17.6421 4.5884 0.00041 0.2638 14.005 4.58839 0.00041 0.2652 18.7239 4.58845 0.00041 0.2666 16.4974 4.58898 0.00041 0.268 6.8793 4.58932 0.00041 0.2694 15.5961 4.58939 0.00042 0.27081 15.5399 4.58962 0.00042 0.27221 10.1894 4.59031 0.00042 0.27361 18.6678 4.5907 0.00042 0.27501 14.5765 4.59092 0.00042 0.27641 18.892 4.59126 0.00043 0.27781 16.4705 4.59061 0.00043 0.27921 22.2591 4.59183 0.00043 0.28061 22.3062 4.59167 0.00043 0.28201 21.099 4.5924 0.00044 0.28341 21.422 4.59271 0.00044 0.28481 16.1268 4.59267 0.00044 0.28621 17.7179 4.59362 0.00044 0.28761 20.4636 4.59385 0.00044 0.28901 26.4127 4.59461 0.00045 0.29041 25.4203 4.59534 0.00045 0.29181 17.6003 4.59595 0.00045 0.29321 14.5966 4.59666 0.00045 0.29461 15.228 4.59688 0.00045 0.29601 28.1086 4.5972 0.00046 0.29741 22.0427 4.59811 0.00046 0.29881 19.8708 4.59915 0.00046 0.30021 21.7453 4.59963 0.00046 0.30161 19.3621 4.59945 0.00047 0.30301 21.6132 4.59989 0.00047 0.30442 24.0315 4.60107 0.00047 0.30582 19.0524 4.60284 0.00047 0.30722 30.8851 4.6039 0.00047 0.30862 27.6754 4.60527 0.00048 0.31002 24.7595 4.60599 0.00048 0.31142 20.4337 4.60601 0.00048 0.31282 31.3298 4.60685 0.00048 0.31422 32.6656 4.60846 0.00049 0.31562 26.1431 4.61136 0.00049 0.31702 31.2673 4.61384 0.00049 0.31842 18.3542 4.61397 0.00049 0.31982 37.3568 4.6159 0.00049 0.32122 30.5074 4.61731 0.0005 0.32262 31.6986 4.61779 0.0005 0.32402 34.4216 4.61845 0.0005 0.32542 26.1849 4.61878 0.0005 0.32682 26.2931 4.62148 0.0005 0.32822 39.4562 4.61911 0.00051 0.32962 34.413 4.62174 0.00051 0.33102 38.7414 4.62542 0.00051 0.33242 31.6088 4.62722 0.00051 0.33382 39.2875 4.6222 0.00052 0.33522 30.6653 4.62488 0.00052 0.33662 33.9907 4.63379 0.00052 0.33803 43.8776 4.63576 0.00052 0.33943 33.7739 4.63635 0.00052 0.34083 32.084 4.63612 0.00053 0.34223 42.2521 4.64036 0.00053 0.34363 37.7039 4.64341 0.00053 0.34503 46.3311 4.64611 0.00053 0.34643 45.4356 4.6492 0.00053 0.34783 41.7626 4.65359 0.00054 0.34923 44.398 4.65505 0.00054 0.35063 41.1996 4.65672 0.00054 0.35203 48.1971 4.65907 0.00054 0.35343 43.1766 4.66188 0.00055 0.35483 44.9445 4.6651 0.00055 0.35623 43.5474 4.66816 0.00055 0.35763 51.4766 4.67141 0.00055 0.35903 43.3376 4.67543 0.00055 0.36043 49.0312 4.67917 0.00056 0.36183 45.9956 4.68248 0.00056 0.36323 53.1758 4.68609 0.00056 0.36463 58.241 4.68986 0.00056 0.36603 53.1328 4.69282 0.00057 0.36743 56.3005 4.69623 0.00057 0.36883 55.3694 4.70054 0.00057 0.37023 60.7817 4.70444 0.00057 0.37164 58.8286 4.7081 0.00057 0.37304 65.575 4.71189 0.00058 0.37444 68.5443 4.71583 0.00058 0.37584 63.69 4.72004 0.00058 0.37724 71.8783 4.72484 0.00058 0.37864 61.866 4.73028 0.00058 0.38004 60.5846 4.73348 0.00059 0.38144 63.1051 4.73648 0.00059 0.38284 65.5966 4.74371 0.00059 0.38424 70.8109 4.74974 0.00059 0.38564 63.8068 4.75337 0.0006 0.38704 80.8814 4.76008 0.0006 0.38844 71.6047 4.76855 0.0006 0.38984 68.8515 4.7767 0.0006 0.39124 75.2432 4.7845 0.0006 0.39264 74.8524 4.7907 0.00061 0.39404 68.3615 4.79729 0.00061 0.39544 79.5494 4.80427 0.00061 0.39684 82.2062 4.81056 0.00061 0.39824 81.8081 4.81676 0.00061 0.39964 83.345 4.82267 0.00062 0.40104 87.2932 4.82803 0.00062 0.40244 89.0538 4.83258 0.00062 0.40384 86.0536 4.84086 0.00062 0.40525 83.4055 4.85092 0.00063 0.40665 86.7447 4.86056 0.00063 0.40805 88.993 4.87071 0.00063 0.40945 96.4966 4.88159 0.00063 0.41085 94.949 4.89162 0.00063 0.41225 92.2176 4.90112 0.00064 0.41365 97.8835 4.91049 0.00064 0.41505 96.4994 4.92021 0.00064 0.41645 101.175 4.93091 0.00064 0.41785 108.342 4.94261 0.00065 0.41925 96.9202 4.95548 0.00065 0.40099 87.03 3.26699 0.00055 0.40298 86.6512 3.27733 0.00055 0.40498 86.7895 3.2981 0.00056 0.40697 83.3219 3.31841 0.00056 0.40897 96.7415 3.34036 0.00056 0.41097 89.4569 3.36165 0.00056 0.41296 94.2548 3.38118 0.00057 0.41496 102.641 3.40098 0.00057 0.41696 101.536 3.42314 0.00057 0.41895 101.725 3.44877 0.00058 0.42095 101.555 3.46955 0.00058 0.42294 104.448 3.49485 0.00058 0.42494 105.386 3.52171 0.00058 0.42694 106.547 3.53348 0.00059 0.42893 116.304 3.55507 0.00059 0.43093 111.054 3.58673 0.00059 0.43293 112.961 3.61576 0.00059 0.43492 117.537 3.64412 0.0006 0.43692 120.327 3.68587 0.0006 0.43891 122.61 3.68964 0.0006 0.44091 124.765 3.70337 0.00061 0.44291 146.782 3.87718 0.00061 0.4449 149.15 3.99187 0.00061 0.4469 173.581 4.22736 0.00061 0.44889 184.639 4.5775 0.00062 0.45089 205.177 4.75593 0.00062 0.45289 245.422 5.21289 0.00062 0.45488 258.495 5.68449 0.00062 0.45688 248.761 5.40518 0.00063 0.45888 273.35 5.65011 0.00063 0.46087 315.218 6.52964 0.00063 0.46287 323.486 6.68467 0.00064 0.46486 238.34 5.22232 0.00064 0.46686 334.843 6.64642 0.00064 0.46886 352.264 7.24272 0.00064 0.47085 374.065 7.33696 0.00065 0.47285 319.86 6.67928 0.00065 0.47485 255.257 5.48325 0.00065 0.47684 374.493 7.47357 0.00065 0.47884 408.808 8.0654 0.00066 0.48083 424.531 8.26798 0.00066 0.48283 425.5 8.38533 0.00066 0.48483 413.917 8.46206 0.00067 0.48682 412.901 8.31897 0.00067 0.48882 377.802 7.56647 0.00067 0.49082 328.122 6.7028 0.00067 0.49281 395.676 7.81625 0.00068 0.49481 446.307 8.87975 0.00068 0.4968 466.89 9.11618 0.00068 0.4988 485.582 9.24641 0.00068 0.5008 505.331 9.33605 0.00069 0.50279 488.831 9.4363 0.00069 0.50479 496.007 9.52926 0.00069 0.50678 506.117 9.61935 0.0007 0.50878 520.998 9.70601 0.0007 0.51078 515.667 9.7735 0.0007 0.51277 519.52 9.78088 0.0007 0.51477 493.701 9.61029 0.00071 0.51677 448.646 8.85582 0.00071 0.51876 413.941 8.14727 0.00071 0.52076 440.958 8.49446 0.00072 0.52275 524.954 10.2475 0.00072 0.52475 536.485 10.4726 0.00072 0.52675 575.168 10.6942 0.00072 0.52874 570.301 10.8943 0.00073 0.53074 583.518 11.041 0.00073 0.53274 596.426 11.1346 0.00073 0.53473 592.099 11.2241 0.00073 0.53673 590.723 11.4134 0.00074 0.53872 628.448 11.6234 0.00074 0.54072 619.481 11.7076 0.00074 0.54272 631.621 11.7978 0.00075 0.54471 654.969 11.9545 0.00075 0.54671 622.749 12.1453 0.00075 0.5487 634.397 12.228 0.00075 0.5507 659.26 12.4256 0.00076 0.5527 673.522 12.554 0.00076 0.55469 690.615 12.6936 0.00076 0.55669 675.87 12.8478 0.00076 0.55869 680.342 12.9937 0.00077 0.56068 720.526 13.1219 0.00077 0.56268 693.445 13.1902 0.00077 0.56467 699.349 13.384 0.00078 0.56667 719.597 13.5682 0.00078 0.56867 751.905 13.7187 0.00078 0.57066 749.669 13.8496 0.00078 0.57266 740.999 13.9705 0.00079 0.57466 744.741 14.0662 0.00079 0.57665 748.923 14.0332 0.00079 0.57865 700.104 13.1382 0.00079 0.58064 627.785 11.8702 0.0008 0.58264 609.735 11.6018 0.0008 0.58464 760.947 14.3669 0.0008 0.58663 758.699 14.8415 0.00081 0.58863 811.041 15.0252 0.00081 0.59063 810.628 15.2761 0.00081 0.59262 810.822 15.5497 0.00081 0.59462 833.087 15.7349 0.00082 0.59661 851.159 15.7957 0.00082 0.59861 827.09 15.8851 0.00082 0.60061 895.946 16.1549 0.00082 0.6026 888.208 16.3386 0.00083 0.6046 904.718 16.5222 0.00083 0.60659 912.152 16.7313 0.00083 0.60859 865.805 16.8511 0.00084 0.61059 919.667 17.0358 0.00084 0.61258 939.933 17.182 0.00084 0.61458 914.907 17.3237 0.00084 0.61658 943.971 17.4565 0.00085 0.61857 948.012 17.6098 0.00085 0.62057 939.342 17.8394 0.00085 0.62256 983.865 18.0412 0.00085 0.62456 980.263 18.2243 0.00086 0.62656 962.959 18.458 0.00086 0.62855 980.577 18.5881 0.00086 0.63055 961.144 18.6996 0.00087 0.63255 1019.1 19.0571 0.00087 0.63454 1033.53 19.2768 0.00087 0.63654 1019.6 19.3682 0.00087 0.63853 1047.86 19.6255 0.00088 0.64053 1069.31 19.881 0.00088 0.64253 1067.49 20.0609 0.00088 0.64452 1079.49 20.2427 0.00089 0.64652 1120.11 20.3971 0.00089 0.64851 1092.62 20.6244 0.00089 0.62138 939.102 17.9221 0.00082 0.62438 965.106 18.208 0.00083 0.62738 968.052 18.5638 0.00083 0.63038 1015.39 18.6682 0.00083 0.63338 1049.42 19.1486 0.00084 0.63638 1019.12 19.362 0.00084 0.63938 1033.74 19.7686 0.00085 0.64238 1098.08 20.047 0.00085 0.64538 1055.35 20.3093 0.00085 0.64838 1102.14 20.609 0.00086 0.65138 1130.01 21.0394 0.00086 0.65438 1146.18 21.3656 0.00087 0.65738 1197.37 21.7007 0.00087 0.66038 1198.42 22.0218 0.00087 0.66338 1178.01 22.4086 0.00088 0.66638 1245.69 22.6586 0.00088 0.66938 1234.89 23.0265 0.00089 0.67238 1240.04 23.4532 0.00089 0.67538 1290.35 23.8294 0.00089 0.67838 1284.8 24.1159 0.0009 0.68138 1350.54 24.4868 0.0009 0.68438 1357.28 24.9352 0.00091 0.68738 1377.77 25.3076 0.00091 0.69037 1378.04 25.6815 0.00091 0.69337 1428.11 26.0329 0.00092 0.69637 1403.06 26.4438 0.00092 0.69937 1464.06 26.7816 0.00093 0.70237 1491.2 27.1156 0.00093 0.70537 1461.09 27.5875 0.00093 0.70837 1527.8 28.0112 0.00094 0.71137 1550.11 28.4349 0.00094 0.71437 1543.95 28.832 0.00095 0.71737 1530.85 29.1848 0.00095 0.72037 1534.61 29.5663 0.00095 0.72337 1598.18 30.0323 0.00096 0.72637 1678.1 30.3947 0.00096 0.72937 1697.11 30.7718 0.00097 0.73237 1655.63 31.0741 0.00097 0.73538 1675.03 31.5838 0.00097 0.73838 1748.01 32.0664 0.00098 0.74138 1761.54 32.6315 0.00098 0.74438 1797.68 33.0239 0.00099 0.74738 1796.9 33.3124 0.00099 0.75038 1771.73 33.9187 0.00099 0.75338 1803.01 33.6207 0.001 0.75638 1891.81 34.0649 0.001 0.75938 1860.09 34.5764 0.00101 0.76238 1925.02 35.0249 0.00101 0.76538 1881.55 35.3848 0.00101 0.76838 1933.89 35.8276 0.00102 0.77138 1948.11 36.3102 0.00102 0.77438 1956.96 36.6714 0.00103 0.77738 1982.23 37.0664 0.00103 0.78038 2035.55 37.2732 0.00103 0.78338 1839.54 34.2336 0.00104 0.78638 1824 33.451 0.00104 0.78938 2094.6 38.6177 0.00104 0.79238 2094.51 39.6328 0.00105 0.79538 2119.94 40.2086 0.00105 0.79838 2264.42 40.7613 0.00106 0.80138 2249.47 41.3407 0.00106 0.80438 2270.17 41.9335 0.00106 0.80738 2350.17 42.3858 0.00107 0.81038 2263.86 42.9001 0.00107 0.81338 2386.51 43.3444 0.00108 0.81637 2325.33 43.8128 0.00108 0.81937 2430.59 44.1885 0.00108 0.82237 2406.19 44.695 0.00109 0.82537 2469.41 45.1355 0.00109 0.82837 2453.17 45.6095 0.0011 0.83137 2512.09 46.0373 0.0011 0.83437 2551.77 46.5735 0.0011 0.83737 2516.38 46.9582 0.00111 0.84037 2545.78 47.5255 0.00111 0.84337 2558.45 48.0785 0.00112 0.84637 2705.08 48.6605 0.00112 0.84937 2675.93 49.3867 0.00112 0.85237 2638.05 49.9448 0.00113 0.85537 2715.39 50.3733 0.00113 0.85837 2677.72 50.741 0.00114 0.86138 2809.83 51.1173 0.00114 0.86438 2810.09 51.7015 0.00114 0.86738 2799.81 52.1162 0.00115 0.87038 2786.47 52.4446 0.00115 0.87338 2926.04 52.8903 0.00116 0.87638 2922.67 53.4347 0.00116 0.87938 2837.24 53.9806 0.00116 0.88238 2868.24 54.4348 0.00117 0.88538 2961.35 54.7313 0.00117 0.88838 3020.3 55.4814 0.00118 0.89138 3026 56.0347 0.00118 0.89438 3062.6 56.5709 0.00118 0.89738 3101.39 57.0679 0.00119 0.90038 3150.6 57.6131 0.00119 0.90338 3251.6 58.1593 0.0012 0.90638 3297.3 58.5888 0.0012 0.90938 3234.7 59.0699 0.0012 0.91238 3231.57 59.5028 0.00121 0.91538 3184.08 59.818 0.00121 0.91838 3282.06 60.3817 0.00122 0.92138 3309.05 60.7325 0.00122 0.92438 3445.73 61.3979 0.00122 0.92738 3372.77 61.8145 0.00123 0.93038 3404.29 62.4117 0.00123 0.93338 3429.3 63.0418 0.00124 0.93638 3408.46 63.467 0.00124 0.93938 3508.58 64.0135 0.00124 0.94238 3538.41 64.5738 0.00125 0.94537 3557.01 64.9466 0.00125 0.94837 3633.44 65.4514 0.00126 0.95137 3709.37 66.0136 0.00126 0.95437 3624.76 66.6471 0.00126 0.95737 3624.32 67.2959 0.00127 0.96037 3645.44 67.8393 0.00127 0.96337 3681.63 68.34 0.00128 0.96637 3855.69 68.9209 0.00128 0.96937 3760.78 69.5147 0.00128 0.97237 3949.48 70.0735 0.00129 0.97537 3850.03 70.6051 0.00129 0.97837 3851.84 70.8879 0.0013 0.98137 3967.97 71.5083 0.0013 0.98438 3994.66 71.8747 0.0013 0.98738 3981.57 72.4245 0.00131 0.99038 4045.72 72.8019 0.00131 0.99338 3914.53 72.9474 0.00132 0.99638 3918.02 72.9409 0.00132
2 0.491768 0.491768 0 0 22.9294 0.0241012 22.049 0.0205236 20.6123 0.0203605 19.4604 0.019948 18.555 0.0193589 17.9404 0.0196985 17.5 0.019972 16.7874 0.0202589 16.1078 0.0196146 15.7134 0.0206443 22.3408 0.0237269 21.8329 0.0220419 21.6198 0.0212977 21.35 0.0208649 21.1573 0.0205247 20.0621 0.0205878 19.517 0.0207127 19.0836 0.0202466 18.9274 0.0202923 18.7767 0.0197023 18.613 0.0203616 18.2543 0.0190089 18.8653 0.0199437 18.344 0.0197649 15.4142 0.0196068 15.5297 0.0200415 15.9188 0.0199469 16.5431 0.0200018 24.047 0.194776 23.0649 0.0977968 21.5528 0.0208901 19.5683 0.0197612 18.6006 0.0198158 17.9416 0.0198399 17.7559 0.0207415 16.048 0.0205445 16.5005 0.0196397 17.29 0.0202549 18.848 0.0195522 21.6104 0.0200111 18.674 0.0200983 19.537 0.0200995 23.0734 0.0236999 17.6662 0.0196356 18.117 0.0203501 15.9288 0.019521 16.4785 0.020367 16.2168 0.0202424 16.6697 0.0199608 16.8732 0.0205888 19.4884 0.0205456 16.4787 0.0199042 17.3668 0.0200108 18.136 0.0207605 1 0 0 24.7 25 -2.44 -3.08 -4.14 -2.89 -3.29 -3.51 10.79 10.88 10.84 -0.28 -1.48 0.3 1 -1 3 0.5 0.67 -0.5 -1.04 0.4 0.1 0.491768 8.26036 6.7775 -0.841908 3.65318 11.9925 8.30329 8.24107 -0.841908 -0.841908 -8.00075 -1.97408 11.9925 11.8528 11.8169 46.5645 45.5864 22.8892 22.0375 20.5985 19.4636 18.5905 17.957 17.5016 16.7735 16.1289 15.679 22.3282 21.8404 21.594 21.3679 21.1507 20.0383 19.4802 19.0719 18.9122 18.7937 18.5944 18.3102 18.8698 18.3575 15.4358 15.5274 15.9221 16.5443 24.1526 23.1675 21.589 19.586 18.6116 17.951 17.72 793.032 793.032 793.032 16.0189 16.5203 17.2765 18.8741 21.6112 18.6687 19.5317 23.0991 17.6863 18.0982 15.9552 16.4697 16.2038 16.6719 16.8418 19.4592 16.4839 17.3662 18.0954 0.435756 0.441805 0.464609 0.482181 0.502599 0.511197 0.507882 0.543317 0.560994 0.59115 0.601169 0.605229 0.614981 0.618738 0.605709 0.617112 0.639737 0.678006 0.689807 0.689845 0.708445 0.729977 0.74005 0.755916 0.78129 0.81422 0.81602 0.865927 0.898237 0.889456 0.888871 0.914808 0.920327 0.95061 0.972694 1.00151 1.01527 1.0241 1.06554 1.08905 1.10756 1.10388 1.13026 1.16555 1.18903 1.15547 1.22143 1.26035 1.25157 1.26156 1.28887 1.34824 1.37504 1.35692 1.34569 1.38831 1.4626 1.43236 1.42541 1.46702 1.52798 1.59915 1.57414 1.5966 1.5925 1.44505 1.51761 1.55 1.61948 1.64527 1.63186 1.6517 1.62233 1.72242 1.72095 1.80004 1.93585 1.90212 2.03168 2.04492 2.07107 2.05249 2.08422 2.10429 2.22164 2.21428 2.14668 2.15645 2.23854 2.30224 2.42817 2.45186 2.59497 2.62026 2.63976 2.5979 2.60838 2.71975 2.83651 3.03503 3.16239 3.15375 3.18767 3.28595 3.30166 3.29728 3.36236 3.31445 3.3784 3.55479 3.2807 3.39611 3.5722 3.74705 3.71692 3.29641 3.27666 3.7304 3.30338 3.33689 3.30781 3.4219 3.3721 3.40716 3.66125 3.72267 3.11639 3.59993 4.15336 4.14348 4.03612 4.24516 4.42942 4.55726 4.75451 4.9505 4.98563 5.06795 5.17007 5.29347 5.41843 5.56126 5.72678 5.85342 5.9857 6.12813 6.23859 6.36272 6.50554 6.63169 6.74868 6.85474 7.00306 7.16557 7.34456 7.39396 7.5363 7.78795 7.89093 8.07898 8.36038 8.61004 8.82501 9.00208 9.16571 9.32329 9.47184 9.59762 9.67394 9.71299 9.98915 10.2561 10.52 10.8151 11.0488 11.2333 11.4491 11.6895 11.9562 12.2716 12.5036 12.684 13.0558 13.2203 13.2449 13.4292 13.7231 14.0975 14.3548 14.6815 15.1639 15.2356 15.2424 15.3805 16.8949 17.7586 18.4728 21.5384 23.4734 24.869 27.8853 30.8999 32.8926 29.1147 31.8127 37.964 40.5473 35.0095 29.8951 40.0559 43.4973 43.2331 45.2758 37.4324 31.4853 43.6493 50.0214 52.4291 52.9105 53.7233 54.4646 54.4094 51.5901 47.458 42.2448 48.1111 57.2958 59.1463 60.3553 61.2317 61.8077 62.5456 63.2988 63.9655 64.5216 64.9749 65.2481 65.5948 65.5097 64.3019 60.633 56.5812 52.9172 60.752 61.7558 62.8688 63.9086 64.7386 65.2262 65.7523 64.3897 58.8373 53.1488 66.8238 71.7268 74.0941 76.4531 78.0263 78.9819 80.7343 83.4938 83.9113 85.0471 87.7038 88.3059 90.556 91.5729 93.2568 95.0959 96.3749 96.7408 99.3639 101.291 102.837 104.041 105.043 104.923 93.671 81.7001 107.005 112.22 113.307 116.801 118.966 118.925 118.84 122.607 123.499 127.021 127.852 129.812 131.036 131.699 132.614 135.223 137.34 139.783 142.674 141.986 147.176 149.451 149.753 153.835 155.676 157.204 158.615 161.067 164.142 165.819 168.196 170.386 173.312 176.051 177.363 179.206 182.443 185.138 187.277 189.172 192.497 194.847 199.452 201.266 203.931 205.777 209.058 211.869 213.269 214.519 216.294 221.224 223.975 226.771 229.962 232.199 234.957 238.701 242.283 244.677 246.907 249.112 250.118 252.824 255.863 260.549 262.956 263.859 266.403 272.267 271.047 272.154 276.282 279.681 283.439 286.609 289.31 293.078 296.446 298.975 301.777 305.802 299.533 273.887 276.609 315.18 323.307 327.498 330.251 333.916 0 0 -2.53874 -2.98821 10.8195 7.70445e-07 1.13973e+10 9.08034 2.2176 0.985392 -3.33537 -1.33885 0.2 3.3647 -20.2564 3912.62 -168.925 -0.516051 0.225079 0.0250787 -3.56034 118 125 126 0.2554 11.4952 4.58174 0.00039 0.2568 2.73432 4.58174 0.0004 0.2582 1.78901 4.58174 0.0004 0.2596 -0.557025 4.58174 0.0004 0.261 -3.26369 4.58174 0.0004 0.2624 4.06963 4.58175 0.00041 0.2638 -1.27856 4.58174 0.00041 0.2652 1.68294 4.58175 0.00041 0.2666 3.14205 4.58175 0.00041 0.268 -1.68101 4.58175 0.00041 0.2694 1.34036 4.58175 0.00042 0.27081 -2.2335 4.58175 0.00042 0.27221 -0.345376 4.58175 0.00042 0.27361 2.4034 4.58175 0.00042 0.27501 0.0162616 4.58175 0.00042 0.27641 3.23161 4.58175 0.00043 0.27781 -3.5089 4.58175 0.00043 0.27921 -1.20166 4.58175 0.00043 0.28061 5.42174 4.58175 0.00043 0.28201 -0.0477238 4.58175 0.00044 0.28341 12.6141 4.58175 0.00044 0.28481 6.16525 4.58176 0.00044 0.28621 -1.30073 4.58176 0.00044 0.28761 22.9088 -4.58176 0.00044 0.28901 1.98377 4.58176 0.00045 0.29041 6.45631 4.58176 0.00045 0.29181 -3.27522 4.58176 0.00045 0.29321 -3.14997 4.58176 0.00045 0.29461 22.9088 -4.58177 0.00045 0.29601 22.9088 -4.58176 0.00046 0.29741 6.78921 4.58176 0.00046 0.29881 5.5709 4.58177 0.00046 0.30021 7.48293 4.58177 0.00046 0.30161 22.9088 -4.58177 0.00047 0.30301 1.74307 4.58177 0.00047 0.30442 1.07775 4.58177 0.00047 0.30582 22.9089 -4.58177 0.00047 0.30722 0.53048 4.58177 0.00047 0.30862 2.00898 4.58178 0.00048 0.31002 1.69995 4.58178 0.00048 0.31142 7.90142 4.58178 0.00048 0.31282 22.9089 -4.58178 0.00048 0.31422 22.9089 -4.58178 0.00049 0.31562 -1.3826 4.58179 0.00049 0.31702 -2.62263 4.58179 0.00049 0.31842 0.36124 4.58178 0.00049 0.31982 22.909 -4.58179 0.00049 0.32122 -1.61618 4.58179 0.0005 0.32262 -1.27027 4.58179 0.0005 0.32402 22.909 -4.58179 0.0005 0.32542 0.332734 4.5818 0.0005 0.32682 5.48161 4.5818 0.0005 0.32822 7.62817 4.58181 0.00051 0.32962 1.07055 4.5818 0.00051 0.33102 -4.54537 4.5818 0.00051 0.33242 5.23965 4.58181 0.00051 0.33382 2.30176 4.58181 0.00052 0.33522 0.157045 4.58181 0.00052 0.33662 -3.98853 4.58181 0.00052 0.33803 -1.19789 4.58182 0.00052 0.33943 5.65454 4.58182 0.00052 0.34083 3.56951 4.58183 0.00053 0.34223 22.9091 -4.58183 0.00053 0.34363 22.9091 -4.58183 0.00053 0.34503 -0.920766 4.58183 0.00053 0.34643 5.2071 4.58181 0.00053 0.34783 -2.83444 4.58182 0.00054 0.34923 22.9091 -4.58182 0.00054 0.35063 -3.41106 4.58183 0.00054 0.35203 -1.08212 4.58184 0.00054 0.35343 -0.452476 4.58183 0.00055 0.35483 8.63763 4.58184 0.00055 0.35623 -2.07296 4.58183 0.00055 0.35763 0.716293 4.58185 0.00055 0.35903 -2.74209 4.58185 0.00055 0.36043 2.64273 4.58186 0.00056 0.36183 5.38579 4.58187 0.00056 0.36323 1.75703 4.58187 0.00056 0.36463 -0.81757 4.58189 0.00056 0.36603 -3.8703 4.58189 0.00057 0.36743 -1.3473 4.58189 0.00057 0.36883 -1.25165 4.58189 0.00057 0.37023 3.63861 4.5819 0.00057 0.37164 5.44104 4.5819 0.00057 0.37304 10.9198 4.58192 0.00058 0.37444 -2.5139 4.58192 0.00058 0.37584 2.63779 4.58191 0.00058 0.37724 -2.11056 4.58191 0.00058 0.37864 2.14827 4.58192 0.00058 0.38004 3.68919 4.58193 0.00059 0.38144 0.24318 4.58195 0.00059 0.38284 -2.22324 4.58196 0.00059 0.38424 -3.90778 4.58198 0.00059 0.38564 3.07888 4.58199 0.0006 0.38704 -1.47291 4.58199 0.0006 0.38844 0.362081 4.58199 0.0006 0.38984 8.37615 4.58199 0.0006 0.39124 1.52051 4.58201 0.0006 0.39264 22.9102 -4.58203 0.00061 0.39404 2.39191 4.58208 0.00061 0.39544 -3.33157 4.58211 0.00061 0.39684 7.23796 4.5821 0.00061 0.39824 6.66952 4.58211 0.00061 0.39964 1.26478 4.58214 0.00062 0.40104 -1.36788 4.58214 0.00062 0.40244 5.25699 4.58214 0.00062 0.40384 3.17369 4.58215 0.00062 0.40525 2.00018 4.58214 0.00063 0.40665 4.12671 4.58216 0.00063 0.40805 -0.94967 4.5822 0.00063 0.40945 22.9107 -4.58213 0.00063 0.41085 2.95455 4.58216 0.00063 0.41225 22.911 -4.58221 0.00064 0.41365 4.53709 4.58226 0.00064 0.41505 -0.895675 4.58225 0.00064 0.41645 1.84249 4.58214 0.00064 0.41785 2.82743 4.58213 0.00065 0.41925 5.31366 4.58225 0.00065 0.40099 6.73809 2.89152 0.00055 0.40298 1.1752 2.89153 0.00055 0.40498 2.5099 2.89152 0.00056 0.40697 2.24623 2.89157 0.00056 0.40897 1.28395 2.89155 0.00056 0.41097 9.03362 2.89156 0.00056 0.41296 6.45041 2.89167 0.00057 0.41496 2.88567 2.89169 0.00057 0.41696 0.699286 2.89145 0.00057 0.41895 3.29924 2.89164 0.00058 0.42095 4.96793 2.89189 0.00058 0.42294 5.85994 2.89189 0.00058 0.42494 2.81544 2.89184 0.00058 0.42694 4.73906 2.89194 0.00059 0.42893 5.31481 2.89203 0.00059 0.43093 10.9503 2.8921 0.00059 0.43293 2.62015 2.89221 0.00059 0.43492 7.99679 2.89232 0.0006 0.43692 3.79231 2.89234 0.0006 0.43891 6.25292 2.89239 0.0006 0.44091 4.69508 2.89245 0.00061 0.44291 6.66658 2.89252 0.00061 0.4449 6.64528 2.8926 0.00061 0.4469 10.6235 2.89269 0.00061 0.44889 3.08746 2.8928 0.00062 0.45089 0.748478 2.89289 0.00062 0.45289 6.60317 2.89298 0.00062 0.45488 4.12776 2.89308 0.00062 0.45688 7.13037 2.89316 0.00063 0.45888 2.29886 2.89325 0.00063 0.46087 8.59447 2.89336 0.00063 0.46287 1.73043 2.89346 0.00064 0.46486 8.91249 2.89355 0.00064 0.46686 7.24609 2.89364 0.00064 0.46886 1.51323 2.89376 0.00064 0.47085 8.37363 2.89389 0.00065 0.47285 7.68685 2.89404 0.00065 0.47485 3.30556 2.89409 0.00065 0.47684 5.37399 2.89421 0.00065 0.47884 9.13754 2.89444 0.00066 0.48083 9.68647 2.89453 0.00066 0.48283 12.4588 2.89471 0.00066 0.48483 8.77096 2.89498 0.00067 0.48682 3.67132 2.89523 0.00067 0.48882 12.6603 2.89545 0.00067 0.49082 11.174 2.89563 0.00067 0.49281 9.35576 2.89581 0.00068 0.49481 4.33843 2.89598 0.00068 0.4968 10.1209 2.89614 0.00068 0.4988 6.97078 2.89628 0.00068 0.5008 6.067 2.89637 0.00069 0.50279 11.5323 2.89641 0.00069 0.50479 3.54034 2.89673 0.00069 0.50678 9.25352 2.89705 0.0007 0.50878 9.54068 2.89737 0.0007 0.51078 10.0719 2.89774 0.0007 0.51277 6.53811 2.89804 0.0007 0.51477 9.97465 2.89828 0.00071 0.51677 10.6951 2.89856 0.00071 0.51876 16.3029 2.89889 0.00071 0.52076 10.0419 2.89926 0.00072 0.52275 8.22457 2.8997 0.00072 0.52475 12.8384 2.90004 0.00072 0.52675 10.8508 2.90031 0.00072 0.52874 12.8231 2.90087 0.00073 0.53074 15.0413 2.90112 0.00073 0.53274 15.3143 2.90116 0.00073 0.53473 15.1484 2.90144 0.00073 0.53673 14.9328 2.90191 0.00074 0.53872 12.6189 2.90252 0.00074 0.54072 20.6133 2.90295 0.00074 0.54272 13.2302 2.9035 0.00075 0.54471 16.1995 2.90434 0.00075 0.54671 18.3428 2.90447 0.00075 0.5487 13.9892 2.90448 0.00075 0.5507 16.6482 2.90473 0.00076 0.5527 19.297 2.90758 0.00076 0.55469 16.1055 2.90933 0.00076 0.55669 19.6204 2.91084 0.00076 0.55869 22.6426 2.91798 0.00077 0.56068 28.1499 2.92304 0.00077 0.56268 32.9064 2.92695 0.00077 0.56467 27.1579 2.93616 0.00078 0.56667 28.1142 2.94638 0.00078 0.56867 37.3907 2.95369 0.00078 0.57066 29.5785 2.94021 0.00078 0.57266 33.289 2.94968 0.00079 0.57466 40.5856 2.97426 0.00079 0.57665 46.3992 2.98581 0.00079 0.57865 33.8167 2.96194 0.00079 0.58064 24.7305 2.94286 0.0008 0.58264 45.5874 2.98356 0.0008 0.58464 45.3804 2.99986 0.0008 0.58663 38.2412 2.99857 0.00081 0.58863 45.5935 3.00878 0.00081 0.59063 39.2746 2.97197 0.00081 0.59262 31.7742 2.94848 0.00081 0.59462 44.12 3.00061 0.00082 0.59661 54.7761 3.03417 0.00082 0.59861 47.6584 3.04794 0.00082 0.60061 57.4685 3.05076 0.00082 0.6026 57.9308 3.05557 0.00083 0.6046 54.4662 3.06002 0.00083 0.60659 52.3371 3.05969 0.00083 0.60859 46.7322 3.04307 0.00084 0.61059 49.7232 3.02017 0.00084 0.61258 43.1629 2.99378 0.00084 0.61458 47.0659 3.02367 0.00084 0.61658 57.4264 3.07752 0.00085 0.61857 56.1176 3.08937 0.00085 0.62057 64.1575 3.0973 0.00085 0.62256 60.5302 3.10313 0.00085 0.62456 64.8578 3.107 0.00086 0.62656 65.0269 3.11201 0.00086 0.62855 62.3588 3.11717 0.00086 0.63055 59.0407 3.12178 0.00087 0.63255 65.4932 3.12567 0.00087 0.63454 66.1305 3.12885 0.00087 0.63654 69.7357 3.13078 0.00087 0.63853 66.7505 3.13324 0.00088 0.64053 63.6612 3.13263 0.00088 0.64253 63.2651 3.12413 0.00088 0.64452 60.4593 3.09914 0.00089 0.64652 53.6089 3.07303 0.00089 0.64851 51.1337 3.0508 0.00089 0.62138 57.899 3.09993 0.00082 0.62438 64.081 3.10665 0.00083 0.62738 63.5802 3.11422 0.00083 0.63038 65.0058 3.12139 0.00083 0.63338 69.3102 3.12719 0.00084 0.63638 67.4925 3.13062 0.00084 0.63938 62.6813 3.13436 0.00085 0.64238 64.3866 3.12474 0.00085 0.64538 63.0193 3.08737 0.00085 0.64838 56.245 3.05216 0.00086 0.65138 66.6319 3.14204 0.00086 0.65438 70.9237 3.1785 0.00087 0.65738 75.7887 3.19688 0.00087 0.66038 76.045 3.21567 0.00087 0.66338 76.9863 3.22847 0.00088 0.66638 83.7422 3.23634 0.00088 0.66938 82.6928 3.25098 0.00089 0.67238 82.0494 3.27455 0.00089 0.67538 80.8366 3.27817 0.00089 0.67838 80.2859 3.28808 0.0009 0.68138 89.984 3.31168 0.0009 0.68438 89.2403 3.3171 0.00091 0.68738 81.9201 3.33762 0.00091 0.69037 92.2429 3.34702 0.00091 0.69337 92.9629 3.36276 0.00092 0.69637 97.946 3.3802 0.00092 0.69937 92.3873 3.39246 0.00093 0.70237 92.5817 3.396 0.00093 0.70537 100.413 3.4216 0.00093 0.70837 95.0721 3.44072 0.00094 0.71137 106.843 3.45625 0.00094 0.71437 101.9 3.46845 0.00095 0.71737 105.131 3.47868 0.00095 0.72037 99.3336 3.47746 0.00095 0.72337 91.3541 3.36667 0.00096 0.72637 81.6064 3.25916 0.00096 0.72937 104.242 3.49892 0.00097 0.73237 115.524 3.55392 0.00097 0.73538 109.013 3.5656 0.00097 0.73838 114.818 3.60365 0.00098 0.74138 118.748 3.62761 0.00098 0.74438 122.6 3.62715 0.00099 0.74738 120.493 3.62621 0.00099 0.75038 132.563 3.66851 0.00099 0.75338 130.856 3.67865 0.001 0.75638 126.106 3.71913 0.001 0.75938 128.193 3.72877 0.00101 0.76238 135.867 3.75168 0.00101 0.76538 127.561 3.7661 0.00101 0.76838 129.184 3.77393 0.00102 0.77138 130.199 3.78479 0.00102 0.77438 144.921 3.81598 0.00103 0.77738 141.729 3.84155 0.00103 0.78038 144.658 3.87134 0.00103 0.78338 142.301 3.90696 0.00104 0.78638 146.246 3.89845 0.00104 0.78938 149.799 3.96321 0.00104 0.79238 140.914 3.99201 0.00105 0.79538 148.432 3.99585 0.00105 0.79838 152.511 4.04811 0.00106 0.80138 166.534 4.07192 0.00106 0.80438 151.658 4.0918 0.00106 0.80738 155.451 4.11023 0.00107 0.81038 161.518 4.14247 0.00107 0.81338 166.331 4.18322 0.00108 0.81637 165.501 4.20561 0.00108 0.81937 175.345 4.23751 0.00108 0.82237 169.841 4.2671 0.00109 0.82537 173.084 4.30689 0.00109 0.82837 178.058 4.34442 0.0011 0.83137 181.877 4.36249 0.0011 0.83437 177.865 4.38798 0.0011 0.83737 179.608 4.43301 0.00111 0.84037 192.691 4.47076 0.00111 0.84337 194.419 4.50089 0.00112 0.84637 188.993 4.52771 0.00112 0.84937 190.495 4.575 0.00112 0.85237 198.442 4.60864 0.00113 0.85537 202.65 4.67501 0.00113 0.85837 207.661 4.70131 0.00114 0.86138 203.865 4.74013 0.00114 0.86438 213.985 4.76711 0.00114 0.86738 213.272 4.81531 0.00115 0.87038 213.666 4.85682 0.00115 0.87338 211.093 4.87756 0.00116 0.87638 208.478 4.89613 0.00116 0.87938 213.801 4.92255 0.00116 0.88238 221.276 4.99634 0.00117 0.88538 222.425 5.03776 0.00117 0.88838 226.272 5.08002 0.00118 0.89138 230.503 5.12847 0.00118 0.89438 234.939 5.16256 0.00118 0.89738 241.8 5.20473 0.00119 0.90038 236.857 5.26223 0.00119 0.90338 244.328 5.31747 0.0012 0.90638 252.121 5.35455 0.0012 0.90938 255.554 5.38917 0.0012 0.91238 246.334 5.42349 0.00121 0.91538 250.406 5.43917 0.00121 0.91838 244.701 5.48146 0.00122 0.92138 252.951 5.5291 0.00122 0.92438 254.815 5.60286 0.00122 0.92738 264.622 5.6409 0.00123 0.93038 265.184 5.65518 0.00123 0.93338 274.046 5.69552 0.00124 0.93638 282.885 5.78884 0.00124 0.93938 272.534 5.76938 0.00124 0.94238 277.863 5.78703 0.00125 0.94537 275.271 5.85303 0.00125 0.94837 278.324 5.90755 0.00126 0.95137 282.578 5.96802 0.00126 0.95437 282.783 6.01917 0.00126 0.95737 293.083 6.06285 0.00127 0.96037 287.927 6.12396 0.00127 0.96337 304.897 6.17873 0.00128 0.96637 296.26 6.21994 0.00128 0.96937 301.181 6.26569 0.00128 0.97237 312.289 6.33155 0.00129 0.97537 304.989 6.22903 0.00129 0.97837 275.436 5.81472 0.0013 0.98137 278.051 5.85827 0.0013 0.98438 323.62 6.48572 0.0013 0.98738 315.031 6.62006 0.00131 0.99038 324.377 6.68961 0.00131 0.99338 310.908 6.73538 0.00132 0.99638 337.675 6.79641 0.00132
3 0.726954 0.726954 0 0 22.0221 0.0213021 21.5176 0.0202561 20.5791 0.0199656 19.7778 0.0196574 18.6669 0.0194366 18.3028 0.0202057 17.9632 0.0199279 17.4425 0.0192395 16.7274 0.0199299 16.2385 0.0200418 21.7404 0.0214721 21.2977 0.0202994 21.176 0.0206097 20.8881 0.0203738 20.7267 0.0204269 20.4008 0.0202997 20.1177 0.019635 19.2392 0.0206833 18.9989 0.0208545 18.8275 0.0200005 18.7114 0.0204816 18.4869 0.0196044 19.0209 0.0201404 18.5237 0.020322 15.7294 0.0199694 16.1328 0.0207262 16.2145 0.0198941 16.6838 0.0194448 22.9739 0.0780953 22.1922 0.0397334 21.1641 0.0212456 19.9184 0.0199814 18.7262 0.0202336 18.2993 0.0202262 18.0694 0.0193258 16.5953 0.020319 17.2919 0.0205034 17.8724 0.0204553 19.1064 0.0201174 21.1499 0.019842 18.7739 0.0205146 19.8621 0.0194911 22.0679 0.0208081 18.043 0.0191026 18.4223 0.0204617 16.4603 0.0195521 17.1678 0.0216309 16.8651 0.019984 17.3951 0.0197389 17.4532 0.0200596 19.5967 0.0200014 17.0676 0.0194617 17.8892 0.0196636 18.3411 0.0193764 1 0 0 24.7 25 -2.44 -3.08 -4.14 -2.89 -3.29 -3.51 10.79 10.88 10.84 -0.28 -1.48 0.3 1 -1 3 0.5 0.67 -0.5 -1.04 0.4 0.1 0.726954 8.05461 6.59279 0.30399 2.41245 11.9281 6.90414 8.0345 0.30399 0.30399 -7.25525 2.42913 11.9281 11.8018 11.7672 46.5031 45.8104 22.0118 21.5095 20.5855 19.7972 18.6981 18.2918 17.9674 17.4848 16.7313 16.2363 21.7492 21.3097 21.1813 20.8999 20.7116 20.4004 20.1416 19.2044 18.9541 18.8281 18.6869 18.5095 19.0171 18.507 15.7311 16.0941 16.2209 16.7163 23.036 22.1369 21.1404 19.9277 18.7146 18.2879 18.1134 793.032 793.032 793.032 16.5782 17.2652 17.8486 19.1035 21.1592 18.7463 19.8901 22.0536 18.093 18.3976 16.4849 17.1157 16.866 17.4093 17.4502 19.5967 17.0973 17.9076 18.3755 1.35896 1.50801 1.65306 1.63966 1.41567 1.56646 1.33798 1.21071 1.68259 1.63591 1.53004 1.52033 1.63713 1.85536 1.97507 1.97656 1.9848 2.01409 1.87268 2.02113 2.12465 2.0574 1.98491 2.18841 1.78098 2.41599 2.51832 2.39875 2.27441 2.15937 2.17725 2.33207 2.4809 2.57075 2.94396 2.59909 2.70127 2.88624 3.03711 3.43093 3.3994 3.29206 3.26246 3.26526 3.16543 2.94738 3.01431 3.15462 3.40307 3.73014 3.56963 3.56413 3.63816 3.71843 3.7752 3.8713 3.93167 4.12275 4.20078 4.2632 4.67557 4.90891 4.80463 4.67097 4.67372 4.8061 4.57262 4.88625 4.9414 5.01394 5.26191 5.09578 5.11101 5.44377 5.55662 5.66758 5.47078 5.47098 5.53769 5.68811 5.62468 5.13067 5.60648 5.96044 5.96844 5.85193 5.82524 5.7474 6.18367 6.19543 5.95086 5.67611 5.45986 6.08494 5.90594 5.64212 5.64934 5.96893 6.34293 6.60586 6.6125 6.41832 6.15391 5.89755 4.61562 4.87364 5.47394 5.4904 6.1652 5.60005 5.68499 5.61401 5.4596 6.15802 5.87689 6.05421 6.43191 6.66154 4.66018 5.30719 5.36877 6.06592 5.57248 5.57393 5.81974 5.89458 6.16317 6.71025 6.64622 7.13769 7.14535 7.07433 7.79845 7.78881 8.39204 8.04498 7.58935 7.62374 8.19326 8.28437 9.21167 9.22477 9.11214 9.00183 9.59124 9.93295 11.2152 11.0639 10.4891 10.9776 10.8517 11.3602 11.0055 11.4915 11.7089 10.4875 10.9049 11.9075 12.1849 9.01086 10.9012 13.4186 13.5257 13.2578 13.4044 14.4675 14.2187 14.3565 14.6894 15.945 15.835 15.8676 16.1213 16.4915 16.9255 17.2421 17.604 18.168 18.528 18.6445 18.7389 18.827 19.0341 19.3358 19.88 20.0683 19.9667 20.1934 20.5038 20.9093 21.2075 21.3112 21.1811 20.9166 21.4895 22.0521 22.0382 22.2084 22.6131 23.0462 23.4923 23.7586 24.0758 24.5529 24.8348 24.9309 25.1155 25.3345 25.6934 25.9825 26.1185 26.4447 26.9108 27.0383 27.1615 27.5885 27.8892 28.0038 28.2375 28.5278 29.0193 29.4709 29.7123 30.0506 30.4912 30.4891 30.3567 30.6853 31.054 31.5257 32.0053 32.4741 32.7331 34.1292 34.1533 33.661 32.3441 33.1782 35.2574 36.1997 37.7349 42.7173 46.3588 31.239 31.9634 32.6049 34.1271 34.1632 32.4474 34.0507 36.1369 39.8037 46.262 49.0986 57.3271 64.3127 58.1171 64.012 75.3969 71.4822 58.822 83.5229 79.1223 82.6895 63.0817 69.7084 91.4402 96.573 97.4688 99.0627 97.7117 89.9726 78.0982 83.3238 100.084 104.306 105.115 106.852 108.442 108.607 110.069 110.915 110.95 112.402 109.661 97.3119 89.1056 105.238 117.983 118.965 120.817 121.611 124.575 125.862 126.576 130.537 131.95 130.291 131.981 136.941 135.311 137.822 137.038 138.372 141.122 142.21 141.617 139.561 144.631 147.245 148.862 149.796 149.968 149.806 148.756 131.008 115.669 137.362 153.55 155.787 157.22 160.858 160.849 158.02 154.727 157.367 159.239 161.381 165.091 163.826 166.149 165.679 164.34 161.955 161.98 164.896 168.457 172.706 177.573 172.254 178.424 184.483 183.675 181.964 188.693 189.813 188.889 188.967 190.845 193.924 195.407 194.377 195.212 196.698 200.503 203.505 204.805 204.72 205.76 209.417 209.023 210.712 211.155 215.1 216.638 219.765 225.27 222.345 225.743 0 0 -2.6316 -3.06168 10.8391 2.81803e-06 1.90755e+10 10.8922 2.30006 0.976029 -2.66745 2.93084 1.66542 2.22195 -0.845241 5586.74 -177.365 -0.574179 0.146527 -0.0534728 -0.0801303 118 125 126 0.2554 22.909 -4.5818 0.00039 0.2568 0.0742324 4.58182 0.0004 0.2582 -0.832397 4.58184 0.0004 0.2596 2.99069 4.58183 0.0004 0.261 22.909 -4.58181 0.0004 0.2624 6.22255 4.58183 0.00041 0.2638 -1.51388 4.5818 0.00041 0.2652 1.49565 4.58179 0.00041 0.2666 -4.25982 4.58184 0.00041 0.268 2.76332 4.58183 0.00041 0.2694 4.12385 4.58182 0.00042 0.27081 22.9091 -4.58182 0.00042 0.27221 -3.66652 4.58183 0.00042 0.27361 4.37688 4.58186 0.00042 0.27501 3.09083 4.58188 0.00042 0.27641 -2.82748 4.58188 0.00043 0.27781 13.0263 4.58188 0.00043 0.27921 5.05474 4.58189 0.00043 0.28061 2.72526 4.58187 0.00043 0.28201 -1.94791 4.58189 0.00044 0.28341 -2.64173 4.5819 0.00044 0.28481 -1.26902 4.58189 0.00044 0.28621 22.9094 -4.58188 0.00044 0.28761 9.49144 4.58191 0.00044 0.28901 -2.22745 4.58185 0.00045 0.29041 22.9098 -4.58195 0.00045 0.29181 6.05231 4.58197 0.00045 0.29321 0.599039 4.58195 0.00045 0.29461 -0.718689 4.58193 0.00045 0.29601 22.9095 -4.58191 0.00046 0.29741 -1.05553 4.58191 0.00046 0.29881 4.36953 4.58194 0.00046 0.30021 0.116 4.58196 0.00046 0.30161 3.07375 4.58198 0.00047 0.30301 7.80749 4.58206 0.00047 0.30442 5.02271 4.58199 0.00047 0.30582 6.10776 4.58201 0.00047 0.30722 4.95302 4.58204 0.00047 0.30862 -2.75896 4.58208 0.00048 0.31002 2.07164 4.58217 0.00048 0.31142 -0.306962 4.58216 0.00048 0.31282 2.77479 4.58214 0.00048 0.31422 -2.77598 4.58213 0.00049 0.31562 -0.638449 4.58213 0.00049 0.31702 7.28049 4.58211 0.00049 0.31842 1.63316 4.58206 0.00049 0.31982 -2.49244 4.58207 0.00049 0.32122 1.41159 4.5821 0.0005 0.32262 4.65041 4.58216 0.0005 0.32402 9.96973 4.58225 0.0005 0.32542 -0.57479 4.58221 0.0005 0.32682 3.97614 4.58221 0.0005 0.32822 22.9111 -4.58223 0.00051 0.32962 2.05628 4.58225 0.00051 0.33102 1.5344 4.58226 0.00051 0.33242 9.20364 4.58229 0.00051 0.33382 3.78666 4.58231 0.00052 0.33522 3.17728 4.58236 0.00052 0.33662 9.60614 4.58239 0.00052 0.33803 -3.23668 4.58241 0.00052 0.33943 11.9809 4.58254 0.00052 0.34083 6.90731 4.58263 0.00053 0.34223 8.60839 4.58259 0.00053 0.34363 11.5909 4.58254 0.00053 0.34503 -0.391294 4.58254 0.00053 0.34643 15.557 4.58259 0.00053 0.34783 4.53075 4.58251 0.00054 0.34923 -0.294721 4.58262 0.00054 0.35063 3.77371 4.58264 0.00054 0.35203 8.54919 4.58267 0.00054 0.35343 6.46759 4.58276 0.00055 0.35483 5.1911 4.5827 0.00055 0.35623 8.38395 4.5827 0.00055 0.35763 2.31301 4.58283 0.00055 0.35903 6.11541 4.58288 0.00055 0.36043 7.15184 4.58292 0.00056 0.36183 13.0066 4.58284 0.00056 0.36323 2.36958 4.58284 0.00056 0.36463 5.95777 4.58287 0.00056 0.36603 4.11826 4.58293 0.00057 0.36743 11.3385 4.58291 0.00057 0.36883 -0.430857 4.58271 0.00057 0.37023 9.72877 4.5829 0.00057 0.37164 2.37789 4.58305 0.00057 0.37304 4.67209 4.58305 0.00058 0.37444 3.77904 4.583 0.00058 0.37584 8.7548 4.58299 0.00058 0.37724 2.13799 4.58296 0.00058 0.37864 12.2397 4.58315 0.00058 0.38004 -3.41756 4.58316 0.00059 0.38144 10.3861 4.58305 0.00059 0.38284 5.9111 4.58293 0.00059 0.38424 5.03441 4.58284 0.00059 0.38564 8.702 4.58311 0.0006 0.38704 13.065 4.58303 0.0006 0.38844 3.78773 4.58291 0.0006 0.38984 6.22952 4.58292 0.0006 0.39124 4.45534 4.58305 0.0006 0.39264 3.25819 4.58322 0.00061 0.39404 0.13363 4.58335 0.00061 0.39544 -0.692019 4.58335 0.00061 0.39684 5.70577 4.58326 0.00061 0.39824 10.4369 4.58314 0.00061 0.39964 8.40537 4.58302 0.00062 0.40104 2.58874 4.58252 0.00062 0.40244 3.13303 4.58261 0.00062 0.40384 22.9142 -4.58284 0.00062 0.40525 4.01735 4.58285 0.00063 0.40665 7.4718 4.58314 0.00063 0.40805 2.42773 4.5829 0.00063 0.40945 2.70601 4.58293 0.00063 0.41085 4.42269 4.5829 0.00063 0.41225 9.6098 4.58284 0.00064 0.41365 -1.04755 4.58314 0.00064 0.41505 3.65959 4.58301 0.00064 0.41645 5.97014 4.58309 0.00064 0.41785 -2.02927 4.58327 0.00065 0.41925 8.52745 4.58338 0.00065 0.40099 3.4779 2.89215 0.00055 0.40298 7.17012 2.89253 0.00055 0.40498 4.85323 2.89257 0.00056 0.40697 8.4921 2.89304 0.00056 0.40897 6.20928 2.8927 0.00056 0.41097 6.7775 2.8927 0.00056 0.41296 7.09047 2.89287 0.00057 0.41496 2.18584 2.89292 0.00057 0.41696 5.1962 2.89311 0.00057 0.41895 7.49119 2.89352 0.00058 0.42095 5.80227 2.89347 0.00058 0.42294 8.56971 2.89387 0.00058 0.42494 4.14739 2.89387 0.00058 0.42694 5.58602 2.89382 0.00059 0.42893 5.6041 2.89445 0.00059 0.43093 6.01263 2.89444 0.00059 0.43293 6.79298 2.89501 0.00059 0.43492 2.93481 2.89468 0.0006 0.43692 12.5854 2.89426 0.0006 0.43891 9.03533 2.89429 0.0006 0.44091 13.3611 2.89482 0.00061 0.44291 8.16284 2.8949 0.00061 0.4449 8.55828 2.89586 0.00061 0.4469 8.53532 2.89587 0.00061 0.44889 8.48314 2.89575 0.00062 0.45089 10.5826 2.89563 0.00062 0.45289 4.90435 2.89627 0.00062 0.45488 6.58229 2.89666 0.00062 0.45688 15.6588 2.89825 0.00063 0.45888 11.5928 2.89805 0.00063 0.46087 10.4487 2.89733 0.00063 0.46287 10.2811 2.89794 0.00064 0.46486 11.4002 2.89778 0.00064 0.46686 9.43613 2.89844 0.00064 0.46886 13.4337 2.89798 0.00064 0.47085 9.93312 2.89862 0.00065 0.47285 12.6192 2.89891 0.00065 0.47485 9.00114 2.89733 0.00065 0.47684 5.6515 2.89785 0.00065 0.47884 11.8303 2.89919 0.00066 0.48083 10.1082 2.89958 0.00066 0.48283 10.782 2.89564 0.00066 0.48483 14.3762 2.89785 0.00067 0.48682 12.6747 2.90143 0.00067 0.48882 16.3851 2.9016 0.00067 0.49082 13.1002 2.90118 0.00067 0.49281 5.34474 2.90141 0.00068 0.49481 13.4574 2.90314 0.00068 0.4968 19.0113 2.90272 0.00068 0.4988 12.1523 2.90295 0.00068 0.5008 14.2121 2.90352 0.00069 0.50279 12.4114 2.90576 0.00069 0.50479 16.2749 2.90556 0.00069 0.50678 15.4875 2.90562 0.0007 0.50878 12.4368 2.90609 0.0007 0.51078 14.2454 2.9068 0.0007 0.51277 18.9718 2.90764 0.0007 0.51477 18.4347 2.90827 0.00071 0.51677 19.3672 2.90901 0.00071 0.51876 10.878 2.91019 0.00071 0.52076 17.7111 2.91096 0.00072 0.52275 16.9516 2.91121 0.00072 0.52475 17.4517 2.91141 0.00072 0.52675 17.9774 2.91161 0.00072 0.52874 14.4687 2.91206 0.00073 0.53074 22.1248 2.91274 0.00073 0.53274 17.5934 2.91398 0.00073 0.53473 23.4514 2.91442 0.00073 0.53673 19.5466 2.91418 0.00074 0.53872 23.4443 2.91471 0.00074 0.54072 20.1099 2.91545 0.00074 0.54272 17.9366 2.91642 0.00075 0.54471 18.5058 2.91716 0.00075 0.54671 19.8916 2.91741 0.00075 0.5487 23.4274 2.91709 0.00075 0.5507 25.1512 2.91644 0.00076 0.5527 21.8499 2.91786 0.00076 0.55469 17.4782 2.91928 0.00076 0.55669 16.4363 2.91924 0.00076 0.55869 18.8652 2.91968 0.00077 0.56068 19.8218 2.92074 0.00077 0.56268 24.9973 2.92188 0.00077 0.56467 21.5743 2.92309 0.00078 0.56667 27.4791 2.92382 0.00078 0.56867 23.6212 2.9247 0.00078 0.57066 27.0944 2.92605 0.00078 0.57266 27.7453 2.92685 0.00079 0.57466 24.6475 2.92713 0.00079 0.57665 25.3488 2.92767 0.00079 0.57865 27.0722 2.92831 0.00079 0.58064 23.3928 2.92937 0.0008 0.58264 19.919 2.93023 0.0008 0.58464 28.301 2.93064 0.0008 0.58663 23.7478 2.93163 0.00081 0.58863 28.6788 2.93307 0.00081 0.59063 31.4221 2.93347 0.00081 0.59262 23.6775 2.93386 0.00081 0.59462 26.428 2.93521 0.00082 0.59661 25.6456 2.93617 0.00082 0.59861 24.232 2.93654 0.00082 0.60061 27.8486 2.9373 0.00082 0.6026 28.2178 2.93825 0.00083 0.6046 28.1483 2.93989 0.00083 0.60659 26.8721 2.94141 0.00083 0.60859 25.6197 2.94223 0.00084 0.61059 28.441 2.9434 0.00084 0.61258 28.8891 2.94494 0.00084 0.61458 35.8219 2.94493 0.00084 0.61658 30.0437 2.94447 0.00085 0.61857 28.8402 2.94562 0.00085 0.62057 33.4143 2.94693 0.00085 0.62256 32.1455 2.94863 0.00085 0.62456 32.2474 2.95038 0.00086 0.62656 36.4832 2.95212 0.00086 0.62855 34.8703 2.95309 0.00086 0.63055 37.1312 2.95845 0.00087 0.63255 31.2037 2.95854 0.00087 0.63454 36.914 2.95663 0.00087 0.63654 33.4205 2.95164 0.00087 0.63853 34.5179 2.95478 0.00088 0.64053 30.8526 2.96294 0.00088 0.64253 33.0746 2.96679 0.00088 0.64452 35.023 2.97327 0.00089 0.64652 39.3352 2.99606 0.00089 0.64851 45.2861 3.01437 0.00089 0.62138 29.9336 2.9476 0.00082 0.62438 31.6788 2.95023 0.00083 0.62738 30.721 2.95261 0.00083 0.63038 34.0487 2.95844 0.00083 0.63338 32.9057 2.95858 0.00084 0.63638 30.9394 2.95202 0.00084 0.63938 35.9874 2.95814 0.00085 0.64238 34.3153 2.96653 0.00085 0.64538 42.3451 2.98241 0.00085 0.64838 47.2611 3.01387 0.00086 0.65138 52.7535 3.02905 0.00086 0.65438 58.4243 3.07771 0.00087 0.65738 61.4211 3.1242 0.00087 0.66038 58.1596 3.08274 0.00087 0.66338 69.0467 3.12211 0.00088 0.66638 79.386 3.2072 0.00088 0.66938 67.4227 3.17663 0.00089 0.67238 59.9319 3.08727 0.00089 0.67538 78.7926 3.2748 0.00089 0.67838 84.7167 3.23751 0.0009 0.68138 82.9835 3.26761 0.0009 0.68438 65.0406 3.11568 0.00091 0.68738 71.2852 3.16323 0.00091 0.69037 92.4877 3.34579 0.00091 0.69337 97.1492 3.39438 0.00092 0.69637 91.5484 3.40305 0.00092 0.69937 101.239 3.41863 0.00093 0.70237 89.2923 3.40542 0.00093 0.70537 88.8477 3.33227 0.00093 0.70837 79.3727 3.22906 0.00094 0.71137 86.3184 3.27308 0.00094 0.71437 99.3609 3.42872 0.00095 0.71737 101.514 3.47115 0.00095 0.72037 106.888 3.47942 0.00095 0.72337 102.944 3.49733 0.00096 0.72637 110.594 3.51389 0.00096 0.72937 105.469 3.51562 0.00097 0.73237 112.675 3.53102 0.00097 0.73538 113.645 3.53999 0.00097 0.73838 110.039 3.54037 0.00098 0.74138 115.655 3.55587 0.00098 0.74438 112.521 3.52671 0.00099 0.74738 94.762 3.40153 0.00099 0.75038 87.7006 3.32435 0.00099 0.75338 103.105 3.48069 0.001 0.75638 121.308 3.6167 0.001 0.75938 118.291 3.6276 0.00101 0.76238 122.957 3.64831 0.00101 0.76538 115.027 3.65725 0.00101 0.76838 121.708 3.69094 0.00102 0.77138 127.103 3.70572 0.00102 0.77438 123.876 3.71397 0.00103 0.77738 127.929 3.76021 0.00103 0.78038 134.146 3.77691 0.00103 0.78338 130.115 3.75731 0.00104 0.78638 138.027 3.77727 0.00104 0.78938 135.198 3.83672 0.00104 0.79238 123.758 3.81704 0.00105 0.79538 141.971 3.84741 0.00105 0.79838 133.447 3.83788 0.00106 0.80138 142.813 3.8541 0.00106 0.80438 134.662 3.88778 0.00106 0.80738 154.606 3.90121 0.00107 0.81038 138.353 3.89388 0.00107 0.81338 143.042 3.86861 0.00108 0.81637 134.657 3.9313 0.00108 0.81937 141.864 3.96409 0.00108 0.82237 149.912 3.98452 0.00109 0.82537 146.82 3.99639 0.00109 0.82837 144.648 3.99858 0.0011 0.83137 152.453 3.99652 0.0011 0.83437 150.099 3.98318 0.0011 0.83737 129.68 3.76576 0.00111 0.84037 119.298 3.59124 0.00111 0.84337 135.96 3.84181 0.00112 0.84637 150.717 4.04444 0.00112 0.84937 158.371 4.07336 0.00112 0.85237 155.456 4.092 0.00113 0.85537 159.694 4.13971 0.00113 0.85837 165.326 4.13959 0.00114 0.86138 158.274 4.10245 0.00114 0.86438 157.864 4.05964 0.00114 0.86738 158.855 4.09392 0.00115 0.87038 158.986 4.11842 0.00115 0.87338 156.775 4.1466 0.00116 0.87638 167.469 4.19587 0.00116 0.87938 160.241 4.17902 0.00116 0.88238 165.116 4.21002 0.00117 0.88538 163.372 4.20373 0.00117 0.88838 167.917 4.18585 0.00118 0.89138 159.965 4.1542 0.00118 0.89438 158.844 4.15452 0.00118 0.89738 155.502 4.19326 0.00119 0.90038 165.651 4.24102 0.00119 0.90338 171.617 4.29863 0.0012 0.90638 178.636 4.36539 0.0012 0.90938 169.511 4.29247 0.0012 0.91238 185.17 4.37716 0.00121 0.91538 183.438 4.46157 0.00121 0.91838 177.953 4.45023 0.00122 0.92138 180.54 4.42632 0.00122 0.92438 187.385 4.52091 0.00122 0.92738 189.085 4.5368 0.00123 0.93038 202.518 4.52368 0.00123 0.93338 186.061 4.52479 0.00124 0.93638 195.164 4.55147 0.00124 0.93938 200.342 4.59541 0.00124 0.94238 192.821 4.61668 0.00125 0.94537 187.627 4.6019 0.00125 0.94837 197.045 4.61387 0.00126 0.95137 203.236 4.63524 0.00126 0.95437 195.328 4.69024 0.00126 0.95737 205.158 4.73391 0.00127 0.96037 208.142 4.7529 0.00127 0.96337 202.396 4.75165 0.00128 0.96637 203.535 4.76686 0.00128 0.96937 213.185 4.8206 0.00128 0.97237 201.216 4.81479 0.00129 0.97537 209.774 4.83971 0.00129 0.97837 218.143 4.84626 0.0013 0.98137 214.514 4.90477 0.0013 0.98438 217.762 4.92769 0.0013 0.98738 222.072 4.97445 0.00131 0.99038 231.239 5.05731 0.00131 0.99338 227.691 5.0132 0.00132 0.99638 220.486 5.06446 0.00132
4 0.581955 0.581955 0 0 18.4096 0.0203236 18.0949 0.019104 17.753 0.0196983 17.0734 0.0202022 16.7053 0.0202957 16.4956 0.0198861 16.3475 0.019885 16.1613 0.0201619 16.0164 0.0199228 16.0688 0.0201941 18.2212 0.0201553 18.0649 0.0199331 18.0162 0.0204171 17.9456 0.0202718 17.8474 0.0196584 17.7175 0.0206506 16.9615 0.0202875 16.8557 0.020853 16.7467 0.0199911 16.7039 0.0199872 16.7234 0.0202424 16.6264 0.0202649 16.7236 0.0198167 16.6315 0.0201253 16.3518 0.0198196 16.6586 0.0195808 17.1169 0.0203843 17.6914 0.0199312 18.7814 0.0207477 18.4549 0.0198934 18.0577 0.0206765 17.1283 0.0196144 16.6966 0.0201177 16.5049 0.0200431 16.4177 0.0200437 16.0468 0.0203054 16.0973 0.0202069 16.2794 0.0197738 16.84 0.0196086 18.067 0.020792 16.704 0.0199894 17.1282 0.0204016 18.4423 0.0200652 16.4373 0.0205672 16.5208 0.0194541 16.04 0.0199834 16.0763 0.0193869 16.019 0.019776 16.1454 0.0203581 16.2313 0.0198437 17.0786 0.0196702 16.1292 0.019937 16.3244 0.0201947 16.5532 0.0200853 1 0 0 24.7 25 -2.44 -3.08 -4.14 -2.89 -3.29 -3.51 10.79 10.88 10.84 -0.28 -1.48 0.3 1 -1 3 0.5 0.67 -0.5 -1.04 0.4 0.1 0.581955 8.18702 7.13315 -2.15155 1.2246 11.9008 7.71833 8.13195 -2.15155 -2.15155 -0.163001 2.16606 11.9008 11.7633 11.725 46.6409 45.9338 18.3922 18.1447 17.7696 17.0625 16.6894 16.5018 16.3537 16.1526 16.0206 16.0583 18.2129 18.0686 17.9938 17.9311 17.8662 17.6828 16.946 16.8104 16.7472 16.7046 16.7104 16.6121 16.7337 16.6247 16.3617 16.6816 17.1003 17.7039 18.744 18.4628 18.0218 17.1495 16.6902 16.5026 16.4156 793.032 793.032 793.032 16.0304 16.0861 16.2917 16.8615 18.0249 16.7046 17.1066 18.4388 16.4069 16.5508 16.0409 16.1146 16.0312 16.1262 16.2399 17.0967 16.1326 16.3139 16.5486 100.096 99.541 100.396 101.491 100.737 101.407 103.22 103.535 106.404 106.217 105.627 105.732 105.921 107.193 108.557 109.018 110.814 107.436 111.818 112.471 113.705 114.996 116.13 116.815 116.973 117.294 117.374 117.09 117.723 119.538 120.259 120.082 120.882 122.656 122.341 123.545 125.165 126.832 126.627 127.305 129.388 130.294 129.837 128.975 130.822 131.266 132.71 133.849 134.618 133.958 131.99 134.266 137.821 137.117 136.96 137.812 138.782 139.937 140.735 140.212 141.747 142.554 141.652 142.315 142.982 144.867 146.183 145.374 145.136 144.716 148.318 147.474 147.471 148.235 150.057 151.745 151.703 151.299 152.033 152.978 145.31 150.15 152.839 153.203 154.737 154.021 155.963 153.253 157.355 157.722 158.423 160.162 160.904 160.71 162.221 162.773 163.099 163.792 167.522 166.85 167.509 170.591 172.985 170.161 168.055 169.648 171.128 172.312 174.19 176.127 177.246 177.543 177.438 177.884 179.484 179.502 183.4 185.629 168.093 170.228 172.104 174.73 177.091 177.525 177.664 179.379 179.875 185.661 185.143 187.032 188.686 189.634 190.257 191.894 193.344 190.229 192.933 197.963 198.308 192.621 202.496 203.703 205.495 208.457 209.349 208.046 210.365 211.357 213.321 214.24 215.348 216.654 218.928 220.757 222.164 224.283 226.016 226.865 228.105 229.367 230.038 231.515 233.592 233.967 234.852 236.512 238.085 239.569 240.796 241.269 241.531 244.05 245.976 247.205 248.586 250.155 252.074 253.678 255.274 257.396 258.807 259.667 260.766 262.155 263.98 265.8 267.58 269.181 270.565 271.816 273.083 274.641 276.517 277.888 279.395 281.388 283.009 284.585 286.906 288.807 290.332 291.436 292.617 293.971 295.762 297.504 300.429 301.653 300.263 301.261 311.063 334.068 344.873 362.287 404.681 424.909 436.68 472.782 509.407 546.386 503.611 499.981 579.194 618.437 614.686 494.951 518.156 645.26 645.74 647.285 650.276 534.923 478.577 603.512 664.023 682.349 680.389 683.167 690.678 686.853 667.439 620.927 563.246 645.934 650.006 486.427 591.747 672.416 680.546 686.352 687.213 647.009 567.161 572.791 685.726 698.174 703.392 705.664 706.592 707.164 709.646 710.269 707.684 694.692 626.022 567.281 656.808 710.994 719.216 725.738 729.513 726.908 726.757 736.368 739.569 739.07 741.241 747.736 748.336 751.955 752.426 753.643 758.204 759.48 758.316 764.277 768.642 770.27 771.079 771.557 768.266 731.505 655.6 648.25 767.702 780.945 781.294 791.017 794.913 793.584 789.798 799.415 800.12 806.124 807.948 810.576 812.879 813.574 812.035 813.017 817.269 821.284 826.746 830.399 829.779 838.955 842.655 840.421 848.558 850.188 852.709 853.896 857.892 861.731 865.302 868.542 871.644 875.751 880.766 884.02 885.556 888.448 892.835 897.472 901.264 903.916 908.118 906.945 914.263 916.37 920.722 924.121 930.316 935.959 939.181 937.526 937.295 944.569 952.982 957.234 961.489 965.44 968.806 972.637 977.615 982.857 986.314 989.371 993.181 992.172 996.935 998.977 1003.83 1008.13 1010.51 1011.82 1016.93 1023.42 1020.82 0 0 -2.57295 -3.01699 10.8274 5.3427e-06 1.44147e+10 11.2517 2.18165 0.978303 -2.48531 2.74776 1.57388 1.1279 -0.623579 3769.9 -143.887 -0.539153 0.166185 -0.0338153 -16.7899 118 125 126 0.2554 95.0776 4.93883 0.00039 0.2568 104.647 4.93502 0.0004 0.2582 106.287 4.94089 0.0004 0.2596 101.356 4.94848 0.0004 0.261 100.974 4.94325 0.0004 0.2624 100.753 4.94789 0.00041 0.2638 109.248 4.9606 0.00041 0.2652 107.65 4.96283 0.00041 0.2666 104.472 4.98337 0.00041 0.268 101.059 4.98202 0.00041 0.2694 107.986 4.97776 0.00042 0.27081 106.836 4.97852 0.00042 0.27221 105.052 4.97988 0.00042 0.27361 102.4 4.9891 0.00042 0.27501 97.6609 4.9991 0.00042 0.27641 107.887 5.0025 0.00043 0.27781 106.651 5.01588 0.00043 0.27921 100.758 4.99088 0.00043 0.28061 110.59 5.02344 0.00043 0.28201 113.68 5.02838 0.00044 0.28341 119.426 5.03778 0.00044 0.28481 124.587 5.04772 0.00044 0.28621 121.175 5.05652 0.00044 0.28761 120.108 5.06188 0.00044 0.28901 115.221 5.06311 0.00045 0.29041 105.335 5.06563 0.00045 0.29181 119.959 5.06626 0.00045 0.29321 116.248 5.06403 0.00045 0.29461 130.084 5.06901 0.00045 0.29601 115.777 5.0834 0.00046 0.29741 121.188 5.08917 0.00046 0.29881 126.424 5.08774 0.00046 0.30021 120.133 5.09417 0.00046 0.30161 119.445 5.10854 0.00047 0.30301 120.952 5.10598 0.00047 0.30442 122.184 5.1158 0.00047 0.30582 126.47 5.12915 0.00047 0.30722 120.443 5.14302 0.00047 0.30862 137.178 5.14131 0.00048 0.31002 124.404 5.14699 0.00048 0.31142 137.572 5.16459 0.00048 0.31282 122.112 5.1723 0.00048 0.31422 128.1 5.16841 0.00049 0.31562 129.994 5.16107 0.00049 0.31702 130.449 5.17683 0.00049 0.31842 142.853 5.18064 0.00049 0.31982 137.913 5.19311 0.00049 0.32122 123.365 5.20302 0.0005 0.32262 128.968 5.20974 0.0005 0.32402 129.84 5.20397 0.0005 0.32542 120.899 5.18688 0.0005 0.32682 136.004 5.20666 0.0005 0.32822 139.339 5.23809 0.00051 0.32962 138.941 5.23181 0.00051 0.33102 129.42 5.23041 0.00051 0.33242 136.449 5.23801 0.00051 0.33382 143.053 5.24669 0.00052 0.33522 136.229 5.25708 0.00052 0.33662 138.775 5.26431 0.00052 0.33803 141.23 5.25957 0.00052 0.33943 144.472 5.27352 0.00052 0.34083 145.141 5.2809 0.00053 0.34223 136.365 5.27265 0.00053 0.34363 151.069 5.27871 0.00053 0.34503 142.66 5.28482 0.00053 0.34643 145.201 5.30221 0.00053 0.34783 152.486 5.31445 0.00054 0.34923 140.228 5.30692 0.00054 0.35063 140.164 5.3047 0.00054 0.35203 156.655 5.30081 0.00054 0.35343 155.721 5.33449 0.00055 0.35483 142.578 5.32654 0.00055 0.35623 149.5 5.32651 0.00055 0.35763 151.63 5.3337 0.00055 0.35903 152.066 5.35096 0.00055 0.36043 152.262 5.36708 0.00056 0.36183 152.821 5.36669 0.00056 0.36323 159.671 5.36282 0.00056 0.36463 152.027 5.36985 0.00056 0.36603 157.687 5.37895 0.00057 0.36743 150.199 5.30632 0.00057 0.36883 140.147 5.35185 0.00057 0.37023 153.961 5.37761 0.00057 0.37164 146.812 5.38113 0.00057 0.37304 157.286 5.396 0.00058 0.37444 157.898 5.38905 0.00058 0.37584 152.023 5.40796 0.00058 0.37724 147.363 5.38161 0.00058 0.37864 157.117 5.42163 0.00058 0.38004 150.41 5.42524 0.00059 0.38144 169.642 5.43217 0.00059 0.38284 164.435 5.44945 0.00059 0.38424 162.993 5.45686 0.00059 0.38564 158.183 5.45492 0.0006 0.38704 156.282 5.47007 0.0006 0.38844 166.549 5.47564 0.0006 0.38984 175.862 5.47893 0.0006 0.39124 166.246 5.48594 0.0006 0.39264 166.604 5.52402 0.00061 0.39404 162.257 5.51711 0.00061 0.39544 171.848 5.52389 0.00061 0.39684 178.708 5.5558 0.00061 0.39824 174.444 5.58086 0.00061 0.39964 167.022 5.55133 0.00062 0.40104 165.541 5.52952 0.00062 0.40244 174.763 5.54599 0.00062 0.40384 170.077 5.56141 0.00062 0.40525 181.601 5.5738 0.00063 0.40665 169.033 5.59357 0.00063 0.40805 182.685 5.6141 0.00063 0.40945 177.16 5.62605 0.00063 0.41085 179.645 5.62922 0.00063 0.41225 173.227 5.6281 0.00064 0.41365 182.839 5.63288 0.00064 0.41505 178.468 5.65007 0.00064 0.41645 174.403 5.65026 0.00064 0.41785 183.357 5.69258 0.00065 0.41925 187.395 5.71704 0.00065 0.40099 169.327 4.23613 0.00055 0.40298 172.578 4.26495 0.00055 0.40498 177.091 4.29043 0.00056 0.40697 180.51 4.32629 0.00056 0.40897 169.234 4.35875 0.00056 0.41097 179.339 4.36474 0.00056 0.41296 174.13 4.36665 0.00057 0.41496 178.417 4.39038 0.00057 0.41696 177.917 4.39726 0.00057 0.41895 186.33 4.47812 0.00058 0.42095 188.323 4.47084 0.00058 0.42294 189.356 4.49743 0.00058 0.42494 192.733 4.52082 0.00058 0.42694 183.8 4.53425 0.00059 0.42893 190.181 4.5431 0.00059 0.43093 208.428 4.56641 0.00059 0.43293 197.799 4.5871 0.00059 0.43492 192.317 4.54271 0.0006 0.43692 192.4 4.58124 0.0006 0.43891 202.581 4.65348 0.0006 0.44091 194.059 4.65846 0.00061 0.44291 184.776 4.57677 0.00061 0.4449 202.999 4.7192 0.00061 0.4469 210.548 4.73679 0.00061 0.44889 207.893 4.76298 0.00062 0.45089 205.328 4.80646 0.00062 0.45289 213.971 4.8196 0.00062 0.45488 205.724 4.80041 0.00062 0.45688 211.704 4.83459 0.00063 0.45888 211.416 4.84925 0.00063 0.46087 212.335 4.87834 0.00063 0.46287 209.831 4.89198 0.00064 0.46486 208.125 4.90847 0.00064 0.46686 221.592 4.92792 0.00064 0.46886 222.955 4.96191 0.00064 0.47085 229.59 4.98934 0.00065 0.47285 231.513 5.01048 0.00065 0.47485 228.064 5.04242 0.00065 0.47684 220.627 5.0686 0.00065 0.47884 221.113 5.08145 0.00066 0.48083 231.756 5.10026 0.00066 0.48283 226.977 5.11942 0.00066 0.48483 231.572 5.12962 0.00067 0.48682 237.623 5.15213 0.00067 0.48882 229.207 5.18383 0.00067 0.49082 236.104 5.18958 0.00067 0.49281 243.287 5.20312 0.00068 0.49481 244.614 5.22858 0.00068 0.4968 235.469 5.25274 0.00068 0.4988 234.05 5.27559 0.00068 0.5008 239.335 5.29451 0.00069 0.50279 236.912 5.30181 0.00069 0.50479 242.171 5.30586 0.00069 0.50678 244.899 5.34483 0.0007 0.50878 246.277 5.37471 0.0007 0.51078 243.474 5.3938 0.0007 0.51277 251.317 5.4153 0.0007 0.51477 251.451 5.43975 0.00071 0.51677 248.531 5.46974 0.00071 0.51876 252.9 5.49484 0.00071 0.52076 259.531 5.51986 0.00072 0.52275 251.201 5.5532 0.00072 0.52475 263.422 5.5754 0.00072 0.52675 257.325 5.58895 0.00072 0.52874 255.864 5.60628 0.00073 0.53074 259.035 5.62822 0.00073 0.53274 267.759 5.6571 0.00073 0.53473 268.823 5.68594 0.00073 0.53673 271.843 5.71421 0.00074 0.53872 272.608 5.73966 0.00074 0.54072 269.56 5.7617 0.00074 0.54272 269.991 5.78164 0.00075 0.54471 272.277 5.80187 0.00075 0.54671 275.188 5.82677 0.00075 0.5487 276.195 5.8568 0.00075 0.5507 270.328 5.87877 0.00076 0.5527 283.867 5.90297 0.00076 0.55469 290.32 5.935 0.00076 0.55669 276.514 5.9611 0.00076 0.55869 285.721 5.98651 0.00077 0.56068 287.761 6.02398 0.00077 0.56268 283.064 6.05472 0.00077 0.56467 288.937 6.07942 0.00078 0.56667 290.185 6.09732 0.00078 0.56867 299.208 6.11648 0.00078 0.57066 292.378 6.13846 0.00078 0.57266 295.598 6.16758 0.00079 0.57466 294.192 6.19595 0.00079 0.57665 296.47 6.24367 0.00079 0.57865 308.165 6.26365 0.00079 0.58064 305.255 6.24094 0.0008 0.58264 304.33 6.25724 0.0008 0.58464 294.553 6.41792 0.0008 0.58663 337.818 6.79894 0.00081 0.58863 357.528 6.97961 0.00081 0.59063 349.528 7.27279 0.00081 0.59262 409.447 7.99539 0.00081 0.59462 436.78 8.34389 0.00082 0.59661 426.217 8.54761 0.00082 0.59861 490.381 9.17621 0.00082 0.60061 502.807 9.81881 0.00082 0.6026 544.106 10.4717 0.00083 0.6046 502.727 9.71682 0.00083 0.60659 500.103 9.653 0.00083 0.60859 588.507 11.0538 0.00084 0.61059 614.654 11.7531 0.00084 0.61258 625.307 11.6861 0.00084 0.61458 505.185 9.56465 0.00084 0.61658 516.787 9.97294 0.00085 0.61857 651.722 12.2326 0.00085 0.62057 639.419 12.2412 0.00085 0.62256 613.526 12.2688 0.00085 0.62456 642.617 12.3224 0.00086 0.62656 520.094 10.2689 0.00086 0.62855 484.042 9.27758 0.00086 0.63055 616.354 11.4868 0.00087 0.63255 702.104 12.5687 0.00087 0.63454 689.599 12.8974 0.00087 0.63654 666.021 12.8623 0.00087 0.63853 702.206 12.9121 0.00088 0.64053 691.057 13.047 0.00088 0.64253 678.942 12.9783 0.00088 0.64452 665.231 12.6299 0.00089 0.64652 606.702 11.7975 0.00089 0.64851 539.211 10.7706 0.00089 0.62138 646.899 12.2447 0.00082 0.62438 644.183 12.3176 0.00083 0.62738 497.519 9.41508 0.00083 0.63038 591.921 11.2772 0.00083 0.63338 695.594 12.7192 0.00084 0.63638 671.906 12.8651 0.00084 0.63938 685.865 12.9693 0.00085 0.64238 691.621 12.9848 0.00085 0.64538 665.11 12.2639 0.00085 0.64838 548.787 10.84 0.00086 0.65138 583.969 10.94 0.00086 0.65438 671.019 12.9581 0.00087 0.65738 694.786 13.1817 0.00087 0.66038 696.477 13.2755 0.00087 0.66338 705.936 13.3163 0.00088 0.66638 719.666 13.333 0.00088 0.66938 707.748 13.3433 0.00089 0.67238 709.278 13.388 0.00089 0.67538 720.556 13.3992 0.00089 0.67838 711.59 13.3527 0.0009 0.68138 710.739 13.1191 0.0009 0.68438 629.316 11.8885 0.00091 0.68738 561.478 10.8422 0.00091 0.69037 653.338 12.4394 0.00091 0.69337 733.514 13.4122 0.00092 0.69637 699.504 13.5601 0.00092 0.69937 697.276 13.6775 0.00093 0.70237 740.601 13.7455 0.00093 0.70537 726.607 13.6986 0.00093 0.70837 718.341 13.6959 0.00094 0.71137 751.968 13.869 0.00094 0.71437 761.749 13.9267 0.00095 0.71737 749.373 13.9177 0.00095 0.72037 719.006 13.9568 0.00095 0.72337 744.792 14.0739 0.00096 0.72637 752.993 14.0847 0.00096 0.72937 749.826 14.1499 0.00097 0.73237 777.385 14.1584 0.00097 0.73538 757.71 14.1804 0.00097 0.73838 757.301 14.2626 0.00098 0.74138 780.737 14.2857 0.00098 0.74438 770.805 14.2647 0.00099 0.74738 759.039 14.3722 0.00099 0.75038 739.588 14.451 0.00099 0.75338 770.554 14.4804 0.001 0.75638 764.233 14.495 0.001 0.75938 769.743 14.5036 0.00101 0.76238 761.998 14.4442 0.00101 0.76538 728.706 13.7814 0.00101 0.76838 669.499 12.4177 0.00102 0.77138 658.238 12.2861 0.00102 0.77438 739.611 14.434 0.00103 0.77738 759.064 14.6731 0.00103 0.78038 772.877 14.6794 0.00103 0.78338 808.097 14.855 0.00104 0.78638 789.092 14.9254 0.00104 0.78938 794.011 14.9014 0.00104 0.79238 807.138 14.833 0.00105 0.79538 795.904 15.0068 0.00105 0.79838 784.813 15.0195 0.00106 0.80138 839.191 15.1281 0.00106 0.80438 811.056 15.1611 0.00106 0.80738 805.541 15.2086 0.00107 0.81038 820.717 15.2502 0.00107 0.81338 832.619 15.2628 0.00108 0.81637 816.823 15.235 0.00108 0.81937 811.751 15.2527 0.00108 0.82237 805.663 15.3297 0.00109 0.82537 824.25 15.4023 0.00109 0.82837 817.358 15.5011 0.0011 0.83137 823.945 15.5672 0.0011 0.83437 826.18 15.556 0.0011 0.83737 857.017 15.7221 0.00111 0.84037 851.115 15.7891 0.00111 0.84337 823.457 15.7487 0.00112 0.84637 867.423 15.896 0.00112 0.84937 877.687 15.9256 0.00112 0.85237 864.539 15.9712 0.00113 0.85537 850.194 15.9927 0.00113 0.85837 868.534 16.0651 0.00114 0.86138 858.199 16.1347 0.00114 0.86438 876.161 16.1994 0.00114 0.86738 877.05 16.2582 0.00115 0.87038 855.881 16.3144 0.00115 0.87338 880.128 16.3888 0.00116 0.87638 862.975 16.4798 0.00116 0.87938 893.465 16.5388 0.00116 0.88238 882.692 16.5667 0.00117 0.88538 907.588 16.6191 0.00117 0.88838 903.322 16.6987 0.00118 0.89138 933.66 16.7828 0.00118 0.89438 884.99 16.8517 0.00118 0.89738 897.9 16.8998 0.00119 0.90038 894.828 16.976 0.00119 0.90338 916.104 16.9548 0.0012 0.90638 920.086 17.0876 0.0012 0.90938 943.721 17.1259 0.0012 0.91238 951.36 17.2049 0.00121 0.91538 915.973 17.2666 0.00121 0.91838 918.141 17.3791 0.00122 0.92138 959.162 17.4816 0.00122 0.92438 938.862 17.5402 0.00122 0.92738 926.272 17.5101 0.00123 0.93038 919.28 17.5059 0.00123 0.93338 922.093 17.6381 0.00124 0.93638 949.91 17.791 0.00124 0.93938 940.061 17.8682 0.00124 0.94238 967.553 17.9456 0.00125 0.94537 950.181 18.0174 0.00125 0.94837 978.458 18.0786 0.00126 0.95137 1007.32 18.1483 0.00126 0.95437 979.947 18.2388 0.00126 0.95737 945.326 18.3342 0.00127 0.96037 950.986 18.3971 0.00127 0.96337 955.615 18.4527 0.00128 0.96637 999.003 18.522 0.00128 0.96937 986.236 18.5036 0.00128 0.97237 990.187 18.5903 0.00129 0.97537 993.573 18.6275 0.00129 0.97837 1017.43 18.7158 0.0013 0.98137 977.218 18.794 0.0013 0.98438 1035.73 18.8373 0.0013 0.98738 995.674 18.8611 0.00131 0.99038 1006.45 18.9542 0.00131 0.99338 1024.68 19.0724 0.00132 0.99638 1027.24 19.0251 0.00132
5 0.22212 0.22212 0 0 15.2637 0.0201236 14.8199 0.0200998 14.2994 0.020661 14.2242 0.0198862 14.1258 0.0197741 14.0553 0.0202466 14.0023 0.0198486 14.0209 0.019569 14.1963 0.0194583 14.2238 0.0197805 15.1313 0.0199482 14.62 0.0200819 14.3417 0.020131 14.2827 0.020129 14.2845 0.0199606 14.2117 0.0196422 14.2465 0.0204287 14.1856 0.0197089 14.1706 0.0198639 14.1368 0.0197094 14.1509 0.0204494 14.0784 0.0198702 14.1692 0.0199181 14.085 0.0198671 14.8877 0.0200275 15.3354 0.0205201 15.8216 0.0201015 16.4343 0.0211933 15.4904 0.0199043 15.2977 0.0197029 14.5272 0.0195631 14.2545 0.0204318 14.1845 0.0208363 14.0211 0.0196015 14.0224 0.0201145 14.2031 0.0198254 14.1204 0.0201639 13.9889 0.0198614 14.1725 0.019956 14.5457 0.0198281 14.1709 0.0204586 14.2409 0.0202467 15.3172 0.0204511 14.0219 0.0201453 14.0491 0.0198215 14.1852 0.0196114 14.0882 0.0195931 14.2165 0.0201887 14.0716 0.0201461 14.1039 0.020234 14.2591 0.0206508 14.1155 0.0202608 13.9795 0.0196116 14.0551 0.0198301 1 0 0 24.7 25 -2.44 -3.08 -4.14 -2.89 -3.29 -3.51 10.79 10.88 10.84 -0.28 -1.48 0.3 1 -1 3 0.5 0.67 -0.5 -1.04 0.4 0.1 0.22212 8.0955 6.29928 -1.57403 0.462094 11.5917 10.6809 8.08679 -1.57403 -1.57403 -21.8804 -1.77879 11.5917 11.4636 11.4288 46.3473 46.0519 15.257 14.8145 14.2641 14.2304 14.1382 14.042 14.0106 14.0446 14.2261 14.2358 15.1341 14.6156 14.3346 14.2757 14.2866 14.2313 14.2235 14.2016 14.178 14.1527 14.1268 14.0855 14.1736 14.0923 14.8863 15.3075 15.8165 16.3726 15.4957 15.314 14.5512 14.2313 14.1401 14.043 14.0162 793.032 793.032 793.032 14.2126 14.1115 13.9964 14.1749 14.5551 14.1462 14.2276 15.293 14.0141 14.0588 14.2065 14.1107 14.2063 14.0637 14.0913 14.2244 14.1014 14.0007 14.0644 2185.57 2190.21 2211.69 2234.47 2211.27 2229.66 2224.26 2208.68 2218.57 2266.41 2250.78 2244.64 2243.18 2272.07 2250.59 2253.74 2278.23 2284.13 2255.24 2278.8 2232.69 2232.77 2274.86 2304.07 2276.59 2302.48 2272.3 2310.58 2306.84 2337.29 2316.4 2342.27 2339.36 2336.3 2352.38 2314.24 2358.09 2402.6 2372.21 2346.13 2361.34 2385.13 2417.26 2443 2444.84 2424.75 2424.85 2442.22 2490.02 2533.53 2530.25 2551.99 2572.53 2542.91 2542.07 2528.97 2562.9 2515.58 2523.08 2585.75 2624.86 2544.82 2476.77 2622.59 2662.41 2639.92 2616.75 2605.9 2642.93 2662.81 2682.87 2703.75 2718.71 2719.23 2720.87 2723.05 2732.16 2742 2752.87 2766.05 2782.18 2792.69 2800.72 2817.39 2830.38 2828.08 2829.85 2836.32 2841.92 2846.25 2852.96 2859.87 2867.22 2877.7 2891.59 2896.23 2897.52 2919.93 2940.21 2950.1 2961.87 2975.54 2990.85 3006.71 3018.22 3029.72 3041.05 3047.5 3049.48 3051.1 3052.51 3049.89 3054.72 3078.5 3098.52 3115.16 3137.86 3161.21 3017.81 3034.14 3047.12 3049.93 3052.1 3049.67 3066.77 3097.45 3122.4 3157.03 3162.1 3175.42 3192.16 3207.4 3232.43 3247.98 3275.37 3297.95 3308.01 3307.64 3319.4 3325.69 3346 3346.16 3300.53 3292.98 3603.98 3778.09 4142.93 4645.08 4791.72 5328.86 5870.32 5617.85 5619.1 6692.56 7045.09 5317.41 6061.02 7097.9 7154.11 7051.47 5128.74 6219.66 7191.17 7357.1 7340.7 7420.18 7348.34 6800.4 6008.19 5735.7 7238.8 7369.36 7431.7 7439.57 7423.8 7416.21 7424.53 7375.57 7349.28 7316.57 7230.67 7047.63 6345.27 5777.68 6229.16 7164.84 7245.28 7323.95 7382 7395.11 7352.29 7299.31 7373 7380.09 7381.56 7372.55 7370.58 7396.82 7383.03 7403.46 7413.45 7405.26 7391.82 7411.02 7412.91 7389.2 7394.78 7423.63 7422.64 7417.53 7404.61 7388.89 7337.44 7138.69 6515.97 5834.43 6514.66 7255.35 7344.35 7321.19 7379.22 7419.61 7421.05 7393.12 7370.31 7431.58 7416.68 7432.79 7448 7444.78 7441.07 7441.48 7430.86 7420.82 7422.21 7435.81 7423.28 7417.83 7432.16 7432 7419.7 7457.73 7456.55 7446.79 7441.29 7438.67 7421.47 7429.53 7424.27 7418.77 7434.09 7436.2 7456.63 7453.72 7484.04 7485.05 7481.61 7487.71 7510.8 7536.6 7551.95 7566.11 7591.78 7582.57 7592.94 7622.98 7648.66 7652.68 7670.32 7692.53 7719.14 7740.82 7763.2 7774.84 7785.19 7742.42 7830.44 7840.01 7858.55 7880.05 7902.5 7918.58 7945.84 7965.72 7991.22 7999.74 8006.97 8023.03 8036.83 8054.32 8049.33 8086.8 8124.36 8119.04 8160 8193.01 8199.99 8197.56 8223.24 8248.86 8234.47 8254.36 8159.83 7389.29 7557.61 8285.63 8370.6 8382.24 8391.6 8418.85 8438.71 8447.71 8474.78 8492.61 8508.69 8518.84 8539.38 8557.48 8571.92 8570.28 8592.41 8598.3 8611.2 8624.51 8602.01 8620.8 8615.37 8626.14 8652.49 8655.39 8693.57 8722.32 8739.18 8731.91 8763.12 8778.57 8801.75 8798.61 8787.05 8823.66 8832.78 8831.38 8846.38 8858.55 8864.55 8875.23 8894.95 8911.38 8909.7 8938.05 8920.5 8949.45 8955.85 8976.37 9004.06 9002.96 9012.25 9003.07 8987.22 8990.85 9010.69 9040.52 9057.28 9075.15 9060.95 9057.27 9053.49 9050.98 9038.86 0 0 -2.44685 -2.89772 10.7924 0.000242677 3.11989e+09 13.5373 1.64659 0.969234 -1.96603 -0.961725 0.2 0.425604 -0.327586 2334.28 -153.184 -0.440427 0.145032 -0.0549677 -9.23758 118 125 126 0.2554 2182.97 40.5194 0.00039 0.2568 2126.55 40.6043 0.0004 0.2582 2240.08 40.9974 0.0004 0.2596 2157.97 41.4145 0.0004 0.261 2219.04 40.9898 0.0004 0.2624 2188.13 41.3264 0.00041 0.2638 2266.15 41.2276 0.00041 0.2652 2195.15 40.9424 0.00041 0.2666 2202.97 41.1235 0.00041 0.268 2201.41 41.9993 0.00041 0.2694 2291.9 41.7131 0.00042 0.27081 2214.73 41.6008 0.00042 0.27221 2196.57 41.5739 0.00042 0.27361 2256.82 42.1031 0.00042 0.27501 2298.1 41.7097 0.00042 0.27641 2212.02 41.7673 0.00043 0.27781 2296.69 42.2158 0.00043 0.27921 2303.76 42.3238 0.00043 0.28061 2262.88 41.7948 0.00043 0.28201 2306.9 42.2262 0.00044 0.28341 2267.8 41.3819 0.00044 0.28481 2237.08 41.3833 0.00044 0.28621 2252.21 42.1541 0.00044 0.28761 2218.7 42.6889 0.00044 0.28901 2190.41 42.1858 0.00045 0.29041 2303.74 42.6598 0.00045 0.29181 2334.36 42.1072 0.00045 0.29321 2302.82 42.8083 0.00045 0.29461 2264.93 42.7397 0.00045 0.29601 2315.97 43.2974 0.00046 0.29741 2324.36 42.9147 0.00046 0.29881 2337.51 43.3886 0.00046 0.30021 2354.49 43.3354 0.00046 0.30161 2278.14 43.2793 0.00047 0.30301 2301.73 43.5737 0.00047 0.30442 2322.19 42.8752 0.00047 0.30582 2358.55 43.6784 0.00047 0.30722 2395.38 44.4938 0.00047 0.30862 2384.61 43.9371 0.00048 0.31002 2322.01 43.4594 0.00048 0.31142 2312.2 43.7379 0.00048 0.31282 2398.05 44.1738 0.00048 0.31422 2401.37 44.7625 0.00049 0.31562 2441.28 45.2342 0.00049 0.31702 2406.34 45.2679 0.00049 0.31842 2428.13 44.8999 0.00049 0.31982 2426.3 44.9017 0.00049 0.32122 2486.81 45.2199 0.0005 0.32262 2495.78 46.0959 0.0005 0.32402 2610.88 46.8935 0.0005 0.32542 2520.41 46.8334 0.0005 0.32682 2546.74 47.2319 0.0005 0.32822 2594.73 47.6085 0.00051 0.32962 2525.35 47.0655 0.00051 0.33102 2584.25 47.0502 0.00051 0.33242 2502.45 46.8099 0.00051 0.33382 2576.68 47.4319 0.00052 0.33522 2538.04 46.5645 0.00052 0.33662 2570.85 46.702 0.00052 0.33803 2538.28 47.8509 0.00052 0.33943 2664.16 48.5681 0.00052 0.34083 2533.66 47.1005 0.00053 0.34223 2501.17 45.8531 0.00053 0.34363 2647.39 48.5264 0.00053 0.34503 2756.93 49.2568 0.00053 0.34643 2635.89 48.8443 0.00053 0.34783 2601.66 48.4194 0.00054 0.34923 2597.44 48.2205 0.00054 0.35063 2741.61 48.8995 0.00054 0.35203 2603.97 49.2642 0.00054 0.35343 2724.91 49.6321 0.00055 0.35483 2766.55 50.0151 0.00055 0.35623 2723.89 50.2895 0.00055 0.35763 2754.25 50.2989 0.00055 0.35903 2647.57 50.3291 0.00055 0.36043 2706.99 50.3691 0.00056 0.36183 2667.53 50.5362 0.00056 0.36323 2790.23 50.7168 0.00056 0.36463 2735.5 50.9161 0.00056 0.36603 2807.15 51.158 0.00057 0.36743 2773.09 51.4538 0.00057 0.36883 2814.51 51.6466 0.00057 0.37023 2749.99 51.794 0.00057 0.37164 2796.86 52.0999 0.00057 0.37304 2891.46 52.3383 0.00058 0.37444 2728.21 52.296 0.00058 0.37584 2829.11 52.3286 0.00058 0.37724 2774.35 52.4474 0.00058 0.37864 2845.96 52.55 0.00058 0.38004 2794.54 52.6295 0.00059 0.38144 2864.92 52.7527 0.00059 0.38284 2785.83 52.8794 0.00059 0.38424 2832.82 53.0142 0.00059 0.38564 2890.76 53.2066 0.0006 0.38704 2883.95 53.4615 0.0006 0.38844 2873.96 53.5467 0.0006 0.38984 2939.48 53.5703 0.0006 0.39124 2889.26 53.9816 0.0006 0.39264 2969.99 54.3539 0.00061 0.39404 2905.22 54.5355 0.00061 0.39544 2893.61 54.7515 0.00061 0.39684 3033.97 55.0025 0.00061 0.39824 2878.3 55.2836 0.00061 0.39964 3003.97 55.5746 0.00062 0.40104 3122.62 55.7859 0.00062 0.40244 3004.97 55.9971 0.00062 0.40384 3071.45 56.2052 0.00062 0.40525 3092.05 56.3235 0.00063 0.40665 3082.01 56.3598 0.00063 0.40805 2944.19 56.3897 0.00063 0.40945 3133.72 56.4154 0.00063 0.41085 3111.24 56.3674 0.00063 0.41225 3135.76 56.4561 0.00064 0.41365 3056.75 56.8926 0.00064 0.41505 3090.46 57.2603 0.00064 0.41645 3036.98 57.5657 0.00064 0.41785 3000.98 57.9826 0.00065 0.41925 3173.75 58.4113 0.00065 0.40099 2889.09 55.665 0.00055 0.40298 3082.41 55.9655 0.00055 0.40498 3134.42 56.2042 0.00056 0.40697 3126.68 56.2559 0.00056 0.40897 3148.29 56.2959 0.00056 0.41097 3036.1 56.2511 0.00056 0.41296 3086.6 56.5657 0.00057 0.41496 3085.14 57.13 0.00057 0.41696 3177.25 57.589 0.00057 0.41895 3115.13 58.2263 0.00058 0.42095 3260.18 58.3196 0.00058 0.42294 3272.9 58.5645 0.00058 0.42494 3178.65 58.8726 0.00058 0.42694 3249.05 59.153 0.00059 0.42893 3196.69 59.6134 0.00059 0.43093 3276.15 59.8997 0.00059 0.43293 3291.62 60.4036 0.00059 0.43492 3248.36 60.8191 0.0006 0.43692 3345.38 61.0041 0.0006 0.43891 3283.04 60.9972 0.0006 0.44091 3262.71 61.2137 0.00061 0.44291 3241.63 61.3295 0.00061 0.4449 3344.58 61.7032 0.00061 0.4469 3331.15 61.7061 0.00061 0.44889 3230.98 60.8665 0.00062 0.45089 3217.11 60.7275 0.00062 0.45289 3576.33 66.4504 0.00062 0.45488 3843.31 69.6548 0.00062 0.45688 4262.19 76.3701 0.00063 0.45888 4696.69 85.614 0.00063 0.46087 4851.09 88.3137 0.00063 0.46287 5311.24 98.2034 0.00064 0.46486 5693.72 108.174 0.00064 0.46686 5636.77 103.525 0.00064 0.46886 5797.34 103.548 0.00064 0.47085 6641.69 123.315 0.00065 0.47285 7041.22 129.807 0.00065 0.47485 5432.81 97.9926 0.00065 0.47684 6295.27 111.685 0.00065 0.47884 7196.6 130.78 0.00066 0.48083 7090.96 131.815 0.00066 0.48283 7308.42 129.925 0.00066 0.48483 5019.55 94.5188 0.00067 0.48682 6276.84 114.606 0.00067 0.48882 7163.52 132.497 0.00067 0.49082 7202.15 135.553 0.00067 0.49281 7364.75 135.251 0.00068 0.49481 7498.92 136.715 0.00068 0.4968 7524.28 135.392 0.00068 0.4988 6964.76 125.301 0.00068 0.5008 5948.08 110.712 0.00069 0.50279 5682.04 105.695 0.00069 0.50479 7225.33 133.375 0.00069 0.50678 7387.13 135.779 0.0007 0.50878 7238.95 136.927 0.0007 0.51078 7196.57 137.072 0.0007 0.51277 7402.43 136.782 0.0007 0.51477 7312.6 136.642 0.00071 0.51677 7372.51 136.795 0.00071 0.51876 7410.64 135.893 0.00071 0.52076 7388.79 135.409 0.00072 0.52275 7101.79 134.807 0.00072 0.52475 7199.62 133.225 0.00072 0.52675 6887.44 129.854 0.00072 0.52874 6117.15 116.92 0.00073 0.53074 5899.79 106.468 0.00073 0.53274 6284.11 114.781 0.00073 0.53473 7192.82 132.013 0.00073 0.53673 7337.4 133.494 0.00074 0.53872 7228.31 134.943 0.00074 0.54072 7105.71 136.012 0.00074 0.54272 7573.67 136.253 0.00075 0.54471 7578.19 135.465 0.00075 0.54671 7265.69 134.489 0.00075 0.5487 7626.15 135.846 0.00075 0.5507 7239.88 135.976 0.00076 0.5527 7499.27 136.004 0.00076 0.55469 7512.72 135.838 0.00076 0.55669 7228.57 135.801 0.00076 0.55869 7448.49 136.285 0.00077 0.56068 7337.87 136.031 0.00077 0.56268 7027.46 136.407 0.00077 0.56467 7546.32 136.591 0.00078 0.56667 7455.48 136.44 0.00078 0.56867 7394.25 136.193 0.00078 0.57066 7365.81 136.546 0.00078 0.57266 7293.83 136.581 0.00079 0.57466 7482.07 136.144 0.00079 0.57665 7277.75 136.247 0.00079 0.57865 7555.5 136.778 0.00079 0.58064 7633.42 136.76 0.0008 0.58264 7295.25 136.666 0.0008 0.58464 7403.98 136.428 0.0008 0.58663 7517.21 136.139 0.00081 0.58863 7274.69 135.191 0.00081 0.59063 7373.33 131.531 0.00081 0.59262 6431.74 120.063 0.00081 0.59462 5999.61 107.513 0.00082 0.59661 6547.66 120.039 0.00082 0.59861 7311.16 133.679 0.00082 0.60061 7441.57 135.318 0.00082 0.6026 7323.47 134.892 0.00083 0.6046 7285.87 135.961 0.00083 0.60659 7447.92 136.704 0.00083 0.60859 7304.76 136.731 0.00084 0.61059 7505.01 136.216 0.00084 0.61258 7285.12 135.796 0.00084 0.61458 7373.32 136.925 0.00084 0.61658 7256.31 136.65 0.00085 0.61857 7647.05 136.947 0.00085 0.62057 7519.91 137.227 0.00085 0.62256 7539.95 137.168 0.00085 0.62456 7385.24 137.1 0.00086 0.62656 7373.61 137.107 0.00086 0.62855 7348.6 136.912 0.00086 0.63055 7454.25 136.727 0.00087 0.63255 7279.07 136.752 0.00087 0.63454 7582.04 137.003 0.00087 0.63654 7443.22 136.772 0.00087 0.63853 7514.05 136.672 0.00088 0.64053 7490.4 136.935 0.00088 0.64253 7349.94 136.933 0.00088 0.64452 7288.85 136.706 0.00089 0.64652 7364.42 137.406 0.00089 0.64851 7282.99 137.385 0.00089 0.62138 7564.53 137.205 0.00082 0.62438 7043.92 137.104 0.00083 0.62738 7432.13 137.055 0.00083 0.63038 7555.07 136.739 0.00083 0.63338 7450.52 136.887 0.00084 0.63638 7387.87 136.79 0.00084 0.63938 7323.89 136.689 0.00085 0.64238 7379.36 136.971 0.00085 0.64538 7503.83 137.01 0.00085 0.64838 7805.16 137.386 0.00086 0.65138 7295.89 137.333 0.00086 0.65438 7463.24 137.891 0.00087 0.65738 7324.94 137.91 0.00087 0.66038 7456.39 137.846 0.00087 0.66338 7492.31 137.959 0.00088 0.66638 7248.91 138.384 0.00088 0.66938 7624.6 138.859 0.00089 0.67238 7737.53 139.142 0.00089 0.67538 7525.09 139.402 0.00089 0.67838 7721.53 139.875 0.0009 0.68138 7707.94 139.706 0.0009 0.68438 7462.31 139.897 0.00091 0.68738 7471.34 140.45 0.00091 0.69037 7608.91 140.923 0.00091 0.69337 7646.29 140.997 0.00092 0.69637 7683.33 141.321 0.00092 0.69937 7845.57 141.731 0.00093 0.70237 7608.23 142.221 0.00093 0.70537 7709.16 142.62 0.00093 0.70837 8128.58 143.032 0.00094 0.71137 7329.04 143.247 0.00094 0.71437 7861.5 143.437 0.00095 0.71737 8017.41 142.649 0.00095 0.72037 7817.76 144.271 0.00095 0.72337 7873.88 144.447 0.00096 0.72637 7404.68 144.788 0.00096 0.72937 7808.04 145.184 0.00097 0.73237 7601.41 145.598 0.00097 0.73538 7882.96 145.894 0.00097 0.73838 7849.41 146.396 0.00098 0.74138 7918.92 146.762 0.00098 0.74438 8084.14 147.232 0.00099 0.74738 7843.85 147.388 0.00099 0.75038 7877.22 147.522 0.00099 0.75338 7887.66 147.817 0.001 0.75638 7925.91 148.072 0.001 0.75938 7943.78 148.394 0.00101 0.76238 8174.7 148.302 0.00101 0.76538 7842.59 148.992 0.00101 0.76838 8010.55 149.684 0.00102 0.77138 8317.91 149.586 0.00102 0.77438 8136.76 150.34 0.00103 0.77738 8198.05 150.948 0.00103 0.78038 7980.19 151.077 0.00103 0.78338 8100.02 151.032 0.00104 0.78638 8378.96 151.505 0.00104 0.78938 8164.49 151.977 0.00104 0.79238 7977.24 151.712 0.00105 0.79538 8174.4 152.078 0.00105 0.79838 8381.64 150.337 0.00106 0.80138 7224.95 136.146 0.00106 0.80438 7398.65 139.246 0.00106 0.80738 8299.82 152.654 0.00107 0.81038 8529.59 154.219 0.00107 0.81338 8177.31 154.433 0.00108 0.81637 8519.57 154.605 0.00108 0.81937 8598.79 155.107 0.00108 0.82237 8465.19 155.473 0.00109 0.82537 8594.66 155.639 0.00109 0.82837 8721.52 156.137 0.0011 0.83137 8519.9 156.466 0.0011 0.83437 8644.64 156.762 0.0011 0.83737 8416.78 156.949 0.00111 0.84037 8615.21 157.327 0.00111 0.84337 8527.53 157.661 0.00112 0.84637 8539.04 157.926 0.00112 0.84937 8411.72 157.896 0.00112 0.85237 8797.8 158.304 0.00113 0.85537 8522.59 158.412 0.00113 0.85837 8600.64 158.65 0.00114 0.86138 8827.05 158.895 0.00114 0.86438 8360.5 158.481 0.00114 0.86738 8780.06 158.827 0.00115 0.87038 8584.16 158.727 0.00115 0.87338 8693.63 158.925 0.00116 0.87638 8423.13 159.41 0.00116 0.87938 8452.29 159.464 0.00116 0.88238 8749.14 160.167 0.00117 0.88538 8775.26 160.696 0.00117 0.88838 8935.93 161.007 0.00118 0.89138 8932.87 160.873 0.00118 0.89438 8926.5 161.448 0.00118 0.89738 8832.42 161.733 0.00119 0.90038 8734.23 162.16 0.00119 0.90338 8736.38 162.102 0.0012 0.90638 8831.59 161.889 0.0012 0.90938 8979.36 162.563 0.0012 0.91238 8923.66 162.731 0.00121 0.91538 8995.86 162.705 0.00121 0.91838 9093.82 162.981 0.00122 0.92138 8812.6 163.206 0.00122 0.92438 9078.99 163.316 0.00122 0.92738 9025.45 163.513 0.00123 0.93038 8676.87 163.876 0.00123 0.93338 8666.98 164.178 0.00124 0.93638 8753.21 164.148 0.00124 0.93938 9233.64 164.67 0.00124 0.94238 8854.84 164.347 0.00125 0.94537 9044.79 164.88 0.00125 0.94837 9080.57 164.998 0.00126 0.95137 9129.69 165.376 0.00126 0.95437 8679.19 165.885 0.00126 0.95737 8909.47 165.865 0.00127 0.96037 8850.41 166.036 0.00127 0.96337 8811.12 165.867 0.00128 0.96637 9019.99 165.575 0.00128 0.96937 8698.8 165.642 0.00128 0.97237 8884.58 166.008 0.00129 0.97537 8784.57 166.557 0.00129 0.97837 9431.68 166.866 0.0013 0.98137 8896.52 167.195 0.0013 0.98438 8971.32 166.933 0.0013 0.98738 9165.48 166.866 0.00131 0.99038 8999.11 166.796 0.00131 0.99338 8927.2 166.75 0.00132 0.99638 8909.29 166.526 0.00132
6 0.261235 0.261235 0 0 18.1686 0.019751 17.5829 0.0201332 16.4392 0.0195366 16.2051 0.0203546 15.8018 0.0200398 15.4882 0.0198452 15.2827 0.0200208 14.8781 0.0196912 14.6199 0.0198515 14.4063 0.0208324 17.8409 0.019721 17.6143 0.0204471 16.9765 0.0199033 16.7087 0.0203455 16.5513 0.020002 16.3167 0.0201949 16.2018 0.0195415 16.0322 0.0198706 15.9657 0.0203067 15.8283 0.0193875 15.7881 0.0200768 15.6665 0.0197684 15.9305 0.0198727 15.6704 0.019751 14.814 0.0195793 15.0794 0.019677 15.6104 0.0203698 16.1194 0.0200867 19.1154 0.0207974 18.3805 0.0201268 17.1034 0.0208262 16.2421 0.0203859 15.8109 0.0199923 15.4584 0.0193125 15.3616 0.0198914 14.5558 0.0200513 14.8341 0.0205288 15.1771 0.0202837 15.9533 0.0198551 17.0965 0.0197946 15.8466 0.0203679 16.1848 0.019624 18.2724 0.0193977 15.3671 0.0201937 15.5456 0.0194719 14.5062 0.019867 14.8019 0.0200725 14.6649 0.0199879 14.9265 0.0210998 14.9931 0.0194884 16.1814 0.0199228 14.8191 0.0199376 15.1941 0.0196724 15.5524 0.0197444 1 0 0 24.7 25 -2.44 -3.08 -4.14 -2.89 -3.29 -3.51 10.79 10.88 10.84 -0.28 -1.48 0.3 1 -1 3 0.5 0.67 -0.5 -1.04 0.4 0.1 0.261235 8.14788 6.57567 0.186875 1.85923 11.6622 10.275 8.1317 0.186875 0.186875 -11.1479 -1.03475 11.6622 11.5372 11.504 46.2349 45.5617 18.1822 17.5757 16.4647 16.186 15.7996 15.4967 15.2816 14.895 14.628 14.362 17.8562 17.5903 16.9818 16.6901 16.5512 16.3062 16.227 16.0393 15.9492 15.8621 15.784 15.6792 15.9374 15.684 14.8371 15.097 15.5907 16.1154 19.0774 18.3747 17.0594 16.2213 15.8114 15.4964 15.3676 793.032 793.032 793.032 14.553 14.8058 15.1618 15.9612 17.1077 15.8269 16.2054 18.3056 15.3567 15.5746 14.5135 14.7985 14.6655 14.8684 15.0212 16.1856 14.8225 15.2121 15.5664 72.5875 71.1598 74.4372 73.587 75.9822 79.1104 78.9268 78.5371 79.5827 82.3706 75.91 81.9278 84.2681 82.6458 82.2123 85.6362 85.7121 82.1172 78.7573 86.5401 81.6645 81.7606 86.2375 90.6893 90.6081 87.8805 84.473 66.5492 80.8467 80.1321 84.6575 81.5193 80.9059 83.8536 84.7097 86.6469 92.2483 90.1129 96.7204 95.8982 96.1377 99.394 102.162 107.608 102.188 100.014 101.448 102.324 108.643 111.565 117.143 117.834 116.071 116.138 122.117 125.404 136.025 134.518 130.041 134.588 133.354 136.896 134.979 136.148 144.04 129.56 132.133 139.419 144.848 127.837 127.027 149.546 157.884 153.904 152.915 157.326 162.608 163.365 164.137 170.611 178.184 177.096 177.364 179.043 181.833 185.15 187.466 189.845 193.883 197.209 198.67 199.812 200.618 202.53 204.961 208.588 212.125 212.522 213.379 215.237 217.806 221.165 223.081 224.305 222.379 220.594 225.609 229.192 228.701 230.405 234.536 238.37 242.082 244.348 246.48 249.456 251.974 253.179 222.463 222.514 229.287 228.589 233.113 238.687 243.333 246.29 250.551 252.921 254.773 256.86 259.338 261.095 264.702 267.827 269.523 274.088 276.031 279.191 283.746 288.753 290.226 294.76 294.432 292.777 296.969 303.643 309.318 313.757 325.119 324.952 309.762 322.706 338.045 353.951 417.419 440.45 489.227 550.573 584.607 502.03 597.743 682.132 644.597 507.608 715.679 735.784 738.433 677.913 491.736 724.953 831.116 859.377 864.021 873.944 860.428 800.107 709.585 661.381 845.532 889.246 904.57 912.226 921.586 931.895 931.54 939.99 947.037 940.895 949.328 933.453 868.41 784.221 732.689 930.085 982.816 990.973 1004.5 1010.73 1025.69 1033.15 1039.28 1052.78 1089.71 1072.93 1069.34 1084.47 1109.23 1098.96 1111.48 1111.08 1109.93 1127.22 1138.13 1138.73 1130.47 1129.11 1157.15 1169.98 1178.74 1183.29 1183.65 1179.97 1179.17 1086.1 969.079 920.065 1153.64 1201.16 1210.43 1220.75 1246.14 1245.6 1230.44 1211.48 1208.07 1234.97 1232.7 1257.04 1263.96 1257.81 1270.6 1265.08 1257.49 1209.94 1246.19 1240.7 1213.17 1220.14 1232.88 1270.33 1256.85 1268.22 1258.03 1238.04 1251.71 1282.68 1318.24 1316.89 1341.48 1389.47 1349.81 1404.37 1405.61 1401.47 1415.77 1448.45 1437.2 1445.95 1465.55 1491.32 1496.93 1496.23 1524.45 1528.72 1533.51 1564.36 1562.51 1614.97 1607.27 1604.79 1633.88 1674.63 1659.61 1632.06 1640.66 1692.75 1701.27 1728.43 1720.93 1743.45 1776.98 1794.22 1771.07 1773.95 1760.28 1764.21 1810.25 1817.42 1791.99 1799.42 1854.95 1832.67 1858.38 1851.51 1880.15 1907.15 1920.7 1929.53 1945.1 1941.1 1961.67 1880.51 1687.65 1972.99 2030.61 2044.57 2043.57 2069.08 2047.11 2089.23 2090.59 2100.71 2115.9 2144.64 2134.09 2175.34 2200.08 2199.43 2200.71 2227.62 2223.35 2230.66 2264.83 2251.15 2230.3 2198.76 2197.49 2226.08 2224.65 2273.68 2313.05 2334.56 2333.92 2361.38 2386.72 2411.53 2444.43 2433.53 2459.58 2484.95 2505.54 2521.29 2563.17 2597.11 2607.75 2597.1 2602.18 2612.72 2587.38 2613.5 2608.51 2622.09 2633.33 2670.27 2692.64 2694.74 2683.19 2697.97 2659.15 0 0 -2.45921 -2.91126 10.7967 0.000116393 4.14173e+09 13.0858 1.74888 0.973706 -1.25262 -0.246419 0.2 1.71242 -4.80059 2450.89 -150.54 -0.452039 0.162843 -0.0371568 -0.00445251 118 125 126 0.2554 71.0212 4.77286 0.00039 0.2568 79.2445 4.76556 0.0004 0.2582 76.1058 4.78251 0.0004 0.2596 68.5162 4.77805 0.0004 0.261 73.2699 4.79075 0.0004 0.2624 76.1944 4.8079 0.00041 0.2638 75.131 4.80688 0.00041 0.2652 81.1103 4.80471 0.00041 0.2666 81.7602 4.81054 0.00041 0.268 87.5188 4.82644 0.00041 0.2694 72.2103 4.79036 0.00042 0.27081 83.0784 4.82389 0.00042 0.27221 83.0293 4.83755 0.00042 0.27361 81.6584 4.82804 0.00042 0.27501 83.1546 4.82553 0.00042 0.27641 89.7193 4.84569 0.00043 0.27781 82.6656 4.84615 0.00043 0.27921 76.3023 4.82498 0.00043 0.28061 73.2215 4.80593 0.00043 0.28201 83.257 4.85114 0.00044 0.28341 72.4348 4.82237 0.00044 0.28481 73.7318 4.82292 0.00044 0.28621 90.6982 4.84931 0.00044 0.28761 92.1087 4.87679 0.00044 0.28901 96.4544 4.87627 0.00045 0.29041 96.7952 4.85931 0.00045 0.29181 82.0084 4.83876 0.00045 0.29321 62.7708 4.7429 0.00045 0.29461 77.718 4.81769 0.00045 0.29601 74.3121 4.81364 0.00046 0.29741 82.6038 4.83985 0.00046 0.29881 87.5876 4.82154 0.00046 0.30021 72.6609 4.81803 0.00046 0.30161 82.6592 4.8351 0.00047 0.30301 92.1859 4.84016 0.00047 0.30442 89.3584 4.85178 0.00047 0.30582 99.9705 4.8867 0.00047 0.30722 86.5405 4.87316 0.00047 0.30862 102.418 4.91595 0.00048 0.31002 93.4059 4.91048 0.00048 0.31142 93.4817 4.91207 0.00048 0.31282 84.9512 4.93401 0.00048 0.31422 93.6035 4.95316 0.00049 0.31562 111.593 4.99213 0.00049 0.31702 103.132 4.95334 0.00049 0.31842 105.516 4.93826 0.00049 0.31982 101.283 4.94818 0.00049 0.32122 93.9316 4.9543 0.0005 0.32262 110.376 4.99974 0.0005 0.32402 117.911 5.02153 0.0005 0.32542 114.893 5.06445 0.0005 0.32682 115.46 5.06988 0.0005 0.32822 116.27 5.05606 0.00051 0.32962 108.495 5.05658 0.00051 0.33102 125.739 5.10415 0.00051 0.33242 120.246 5.13113 0.00051 0.33382 136.525 5.22213 0.00052 0.33522 145.549 5.20887 0.00052 0.33662 130.415 5.17014 0.00052 0.33803 130.747 5.20948 0.00052 0.33943 125.181 5.1987 0.00052 0.34083 146.3 5.22985 0.00053 0.34223 136.666 5.21292 0.00053 0.34363 129.209 5.22322 0.00053 0.34503 142.927 5.29456 0.00053 0.34643 133.079 5.16604 0.00053 0.34783 125.89 5.18811 0.00054 0.34923 143.8 5.25241 0.00054 0.35063 142.683 5.30203 0.00054 0.35203 131.115 5.15146 0.00054 0.35343 128.41 5.14466 0.00055 0.35483 157.561 5.3461 0.00055 0.35623 157.441 5.42684 0.00055 0.35763 150.183 5.38791 0.00055 0.35903 155.785 5.37834 0.00055 0.36043 161.09 5.42134 0.00056 0.36183 164.928 5.47397 0.00056 0.36323 168.147 5.48161 0.00056 0.36463 158.138 5.48943 0.00056 0.36603 176.953 5.55601 0.00057 0.36743 164.446 5.63609 0.00057 0.36883 166.456 5.62445 0.00057 0.37023 177.847 5.6273 0.00057 0.37164 179.102 5.64532 0.00057 0.37304 179.221 5.6755 0.00058 0.37444 186.653 5.71177 0.00058 0.37584 196.016 5.73735 0.00058 0.37724 193.415 5.76383 0.00058 0.37864 200.341 5.80926 0.00058 0.38004 205.881 5.84713 0.00059 0.38144 195.599 5.86388 0.00059 0.38284 207.404 5.87704 0.00059 0.38424 200.481 5.88634 0.00059 0.38564 207.515 5.90852 0.0006 0.38704 196.162 5.9369 0.0006 0.38844 202.575 5.9796 0.0006 0.38984 214.633 6.02168 0.0006 0.39124 212.347 6.02643 0.0006 0.39264 209.783 6.03669 0.00061 0.39404 213.603 6.05903 0.00061 0.39544 222.793 6.09011 0.00061 0.39684 222.818 6.13105 0.00061 0.39824 212.173 6.15456 0.00061 0.39964 216.602 6.16964 0.00062 0.40104 228.858 6.14593 0.00062 0.40244 227.222 6.12406 0.00062 0.40384 229.173 6.18574 0.00062 0.40525 229.156 6.23028 0.00063 0.40665 231.97 6.22415 0.00063 0.40805 233.094 6.24544 0.00063 0.40945 234.294 6.2974 0.00063 0.41085 236.833 6.34607 0.00063 0.41225 238.556 6.39356 0.00064 0.41365 235.33 6.42274 0.00064 0.41505 236.296 6.45033 0.00064 0.41645 254.464 6.48904 0.00064 0.41785 248.023 6.52196 0.00065 0.41925 260.524 6.53778 0.00065 0.40099 220.39 5.01498 0.00055 0.40298 230.515 5.01575 0.00055 0.40498 219.899 5.11821 0.00056 0.40697 221.503 5.1076 0.00056 0.40897 235.576 5.17652 0.00056 0.41097 245.447 5.262 0.00056 0.41296 239.705 5.33372 0.00057 0.41496 239.642 5.37957 0.00057 0.41696 245.982 5.44593 0.00057 0.41895 254.552 5.48298 0.00058 0.42095 253.462 5.512 0.00058 0.42294 258.811 5.54476 0.00058 0.42494 257.513 5.58377 0.00058 0.42694 257.74 5.61148 0.00059 0.42893 265.663 5.66854 0.00059 0.43093 258.383 5.71813 0.00059 0.43293 271.58 5.74511 0.00059 0.43492 275.936 5.81793 0.0006 0.43692 273.95 5.84902 0.0006 0.43891 277.439 5.89968 0.0006 0.44091 283.893 5.97297 0.00061 0.44291 286.912 6.05384 0.00061 0.4449 285.428 6.07769 0.00061 0.4469 295.233 6.1513 0.00061 0.44889 285.696 6.14596 0.00062 0.45089 293.463 6.11907 0.00062 0.45289 293.061 6.18724 0.00062 0.45488 316.385 6.2962 0.00062 0.45688 311.456 6.38925 0.00063 0.45888 308.594 6.46226 0.00063 0.46087 335.853 6.65011 0.00063 0.46287 323.663 6.64735 0.00064 0.46486 308.917 6.39653 0.00064 0.46686 322.554 6.61011 0.00064 0.46886 337.58 6.86532 0.00064 0.47085 365.871 7.13215 0.00065 0.47285 405.668 8.21461 0.00065 0.47485 431.264 8.613 0.00065 0.47684 490.106 9.46418 0.00065 0.47884 551.176 10.5459 0.00066 0.48083 577.704 11.1501 0.00066 0.48283 497.179 9.68903 0.00066 0.48483 588.151 11.384 0.00067 0.48682 690.89 12.8935 0.00067 0.48882 636.994 12.2207 0.00067 0.49082 515.912 9.78715 0.00067 0.49281 698.814 13.4965 0.00068 0.49481 720.537 13.8585 0.00068 0.4968 704.04 13.9062 0.00068 0.4988 667.041 12.8178 0.00068 0.5008 490.32 9.5082 0.00069 0.50279 726.184 13.6634 0.00069 0.50479 821.626 15.5802 0.00069 0.50678 875.363 16.092 0.0007 0.50878 868.387 16.1762 0.0007 0.51078 881.502 16.3561 0.0007 0.51277 842.198 16.1111 0.0007 0.51477 802.826 15.0193 0.00071 0.51677 702.103 13.3869 0.00071 0.51876 665.875 12.5213 0.00071 0.52076 826.649 15.8412 0.00072 0.52275 911.632 16.6336 0.00072 0.52475 881.984 16.9116 0.00072 0.52675 910.918 17.0506 0.00072 0.52874 937.432 17.2206 0.00073 0.53074 939.605 17.4078 0.00073 0.53274 943.234 17.4014 0.00073 0.53473 979.415 17.5549 0.00073 0.53673 928.291 17.6829 0.00074 0.53872 956.464 17.5713 0.00074 0.54072 949.24 17.7245 0.00074 0.54272 940.617 17.4361 0.00075 0.54471 862.45 16.2558 0.00075 0.54671 776.199 14.7322 0.00075 0.5487 735.23 13.8027 0.00075 0.5507 943.595 17.3749 0.00076 0.5527 1005.52 18.3334 0.00076 0.55469 1009.25 18.4818 0.00076 0.55669 991.666 18.728 0.00076 0.55869 1020.78 18.8414 0.00077 0.56068 1060.43 19.1137 0.00077 0.56268 1025.94 19.2495 0.00077 0.56467 1072.07 19.3612 0.00078 0.56667 1031.95 19.6072 0.00078 0.56867 1078.76 20.2802 0.00078 0.57066 1051.41 19.9743 0.00078 0.57266 1049.18 19.909 0.00079 0.57466 1067.21 20.1847 0.00079 0.57665 1126.21 20.6362 0.00079 0.57865 1110.15 20.4488 0.00079 0.58064 1091.7 20.6772 0.0008 0.58264 1088.45 20.6699 0.0008 0.58464 1116.98 20.6489 0.0008 0.58663 1110.45 20.9644 0.00081 0.58863 1152.06 21.1634 0.00081 0.59063 1131.84 21.1744 0.00081 0.59262 1098.13 21.0236 0.00081 0.59462 1115.79 20.9989 0.00082 0.59661 1163.33 21.5105 0.00082 0.59861 1201.04 21.7448 0.00082 0.60061 1204.16 21.9048 0.00082 0.6026 1181.13 21.9878 0.00083 0.6046 1213.13 21.9944 0.00083 0.60659 1188.39 21.9272 0.00083 0.60859 1184.1 21.9126 0.00084 0.61059 1107.29 20.2144 0.00084 0.61258 987.536 18.0836 0.00084 0.61458 898.38 17.1929 0.00084 0.61658 1176.56 21.4465 0.00085 0.61857 1217.44 22.3141 0.00085 0.62057 1251.07 22.4835 0.00085 0.62256 1202.65 22.6721 0.00085 0.62456 1297.38 23.136 0.00086 0.62656 1247.14 23.1261 0.00086 0.62855 1213.54 22.8491 0.00086 0.63055 1207.26 22.5026 0.00087 0.63255 1187.56 22.4404 0.00087 0.63454 1251.04 22.9319 0.00087 0.63654 1246.02 22.8904 0.00087 0.63853 1222.95 23.3353 0.00088 0.64053 1252.92 23.4617 0.00088 0.64253 1250.25 23.3493 0.00088 0.64452 1291.55 23.583 0.00089 0.64652 1266.62 23.4821 0.00089 0.64851 1257.09 23.3435 0.00089 0.62138 1188.34 22.4745 0.00082 0.62438 1279.15 23.1369 0.00083 0.62738 1229.19 23.0366 0.00083 0.63038 1205.29 22.5336 0.00083 0.63338 1252.97 22.6609 0.00084 0.63638 1247.84 22.8937 0.00084 0.63938 1273.92 23.5781 0.00085 0.64238 1273.45 23.3317 0.00085 0.64538 1261.96 23.5395 0.00085 0.64838 1261.11 23.3533 0.00086 0.65138 1249.87 22.9879 0.00086 0.65438 1236.22 23.2378 0.00087 0.65738 1292.62 23.8039 0.00087 0.66038 1336.49 24.4543 0.00087 0.66338 1337.11 24.4295 0.00088 0.66638 1339.5 24.8793 0.00088 0.66938 1385.51 25.7577 0.00089 0.67238 1373.93 25.0318 0.00089 0.67538 1425.91 26.0304 0.00089 0.67838 1394.03 26.0532 0.0009 0.68138 1424.05 25.9774 0.0009 0.68438 1408.61 26.239 0.00091 0.68738 1463.1 26.8376 0.00091 0.69037 1400.16 26.6315 0.00091 0.69337 1456.21 26.7917 0.00092 0.69637 1483.29 27.1507 0.00092 0.69937 1449.75 27.6226 0.00093 0.70237 1510.02 27.7254 0.00093 0.70537 1483.17 27.7127 0.00093 0.70837 1532.44 28.2296 0.00094 0.71137 1508.63 28.3081 0.00094 0.71437 1508.54 28.3957 0.00095 0.71737 1553.31 28.9612 0.00095 0.72037 1610.8 28.9272 0.00095 0.72337 1577.86 29.8889 0.00096 0.72637 1620.82 29.7476 0.00096 0.72937 1606.34 29.7022 0.00097 0.73237 1631.42 30.2356 0.00097 0.73538 1635.32 30.9829 0.00097 0.73838 1671.59 30.7074 0.00098 0.74138 1598.45 30.2023 0.00098 0.74438 1648.7 30.3599 0.00099 0.74738 1689.04 31.3152 0.00099 0.75038 1701.85 31.4715 0.00099 0.75338 1700.17 31.9697 0.001 0.75638 1739.76 31.8321 0.001 0.75938 1717.87 32.2452 0.00101 0.76238 1795.28 32.8604 0.00101 0.76538 1711.87 33.1768 0.00101 0.76838 1763.26 32.752 0.00102 0.77138 1750.04 32.8048 0.00102 0.77438 1728.77 32.5541 0.00103 0.77738 1811.91 32.6262 0.00103 0.78038 1829.59 33.471 0.00103 0.78338 1827.57 33.6026 0.00104 0.78638 1792.61 33.1359 0.00104 0.78938 1786.1 33.2722 0.00104 0.79238 1872.12 34.2914 0.00105 0.79538 1835.94 33.8824 0.00105 0.79838 1812.64 34.3544 0.00106 0.80138 1889.41 34.2282 0.00106 0.80438 1936.37 34.7539 0.00106 0.80738 1926.35 35.2497 0.00107 0.81038 1924.89 35.4985 0.00107 0.81338 1893.39 35.6606 0.00108 0.81637 2002.25 35.9464 0.00108 0.81937 1925.25 35.8728 0.00108 0.82237 1926.49 36.2507 0.00109 0.82537 1900.71 34.7606 0.00109 0.82837 1713.19 31.2216 0.0011 0.83137 1959.36 36.4586 0.0011 0.83437 2065.31 37.5167 0.0011 0.83737 1990.47 37.773 0.00111 0.84037 2047.87 37.7547 0.00111 0.84337 2099.51 38.2232 0.00112 0.84637 2072.04 37.8197 0.00112 0.84937 2057.77 38.5933 0.00112 0.85237 2123.13 38.6183 0.00113 0.85537 2020.65 38.8042 0.00113 0.85837 2159.2 39.0832 0.00114 0.86138 2119.9 39.6112 0.00114 0.86438 2168.84 39.4174 0.00114 0.86738 2183.83 40.1752 0.00115 0.87038 2285.7 40.6298 0.00115 0.87338 2130.46 40.6178 0.00116 0.87638 2100.67 40.6414 0.00116 0.87938 2207.79 41.1358 0.00116 0.88238 2227.01 41.0574 0.00117 0.88538 2264.13 41.1917 0.00117 0.88838 2282.52 41.8196 0.00118 0.89138 2277.42 41.5682 0.00118 0.89438 2226.88 41.185 0.00118 0.89738 2210.26 40.6055 0.00119 0.90038 2169.09 40.5822 0.00119 0.90338 2250.91 41.1076 0.0012 0.90638 2195.78 41.0812 0.0012 0.90938 2272.16 41.9822 0.0012 0.91238 2290.83 42.7058 0.00121 0.91538 2324.33 43.1012 0.00121 0.91838 2446.51 43.0894 0.00122 0.92138 2345.84 43.5941 0.00122 0.92438 2399.93 44.0599 0.00122 0.92738 2433.75 44.5159 0.00123 0.93038 2439.38 45.1206 0.00123 0.93338 2430.01 44.9203 0.00124 0.93638 2423.55 45.3992 0.00124 0.93938 2418.98 45.8655 0.00124 0.94238 2555.03 46.2441 0.00125 0.94537 2546.87 46.5336 0.00125 0.94837 2516.69 47.3035 0.00126 0.95137 2624.51 47.9276 0.00126 0.95437 2667.42 48.1233 0.00126 0.95737 2597.38 47.9275 0.00127 0.96037 2609.29 48.0208 0.00127 0.96337 2721.59 48.2147 0.00128 0.96637 2589.99 47.7486 0.00128 0.96937 2696.2 48.2289 0.00128 0.97237 2670.6 48.1373 0.00129 0.97537 2642.24 48.387 0.00129 0.97837 2589.51 48.5937 0.0013 0.98137 2658.58 49.273 0.0013 0.98438 2723.48 49.6842 0.0013 0.98738 2711 49.7229 0.00131 0.99038 2757.65 49.5104 0.00131 0.99338 2661.05 49.7824 0.00132 0.99638 2599.04 49.0685 0.00132
7 0.20748 0.20748 0 0 16.6 0.0197495 15.9647 0.0198923 15.2288 0.0202151 15.0775 0.0200527 14.8447 0.0195715 14.6405 0.0194715 14.5112 0.0204931 14.1192 0.0201035 13.9364 0.0203186 13.7014 0.0205113 16.4091 0.020052 15.7377 0.020467 15.4617 0.0201851 15.3271 0.0201697 15.2837 0.0199321 15.1376 0.0196228 15.1114 0.0201391 14.9631 0.0196564 14.8971 0.0194167 14.8757 0.0196881 14.8212 0.0191738 14.8028 0.0202949 14.9345 0.0198914 14.7832 0.0195552 14.2553 0.0195194 14.5134 0.0199352 14.9695 0.0198872 15.4462 0.01953 17.3869 0.02013 16.7462 0.0197883 15.6362 0.0202441 15.0994 0.0201006 14.8351 0.0194891 14.6609 0.0198865 14.5765 0.0199778 13.831 0.0197587 14.0285 0.0196022 14.3781 0.0201693 14.9442 0.0198802 15.6833 0.0208275 14.8535 0.0195355 15.1378 0.0209408 16.6836 0.019668 14.5713 0.0201465 14.7267 0.0201235 13.8123 0.0200586 14.0822 0.0204709 13.9456 0.0199584 14.101 0.0199993 14.2369 0.0197168 15.0854 0.0202421 14.0634 0.0198414 14.4014 0.0198506 14.7318 0.0202266 1 0 0 24.7 25 -2.44 -3.08 -4.14 -2.89 -3.29 -3.51 10.79 10.88 10.84 -0.28 -1.48 0.3 1 -1 3 0.5 0.67 -0.5 -1.04 0.4 0.1 0.20748 8.04756 6.24243 0.422991 1.07919 11.5326 10.8452 8.03902 0.422991 0.422991 -22.4458 0.647946 11.5326 11.4057 11.3705 46.1011 45.6934 16.6137 15.9706 15.2172 15.0746 14.8682 14.6696 14.4848 14.1136 13.9193 13.674 16.4063 15.7126 15.4517 15.3179 15.2874 15.1583 15.1039 14.9819 14.9292 14.8927 14.867 14.787 14.9404 14.8076 14.2817 14.5169 14.9758 15.4721 17.38 16.7579 15.623 15.0939 14.8632 14.667 14.5777 793.032 793.032 793.032 13.8442 14.0503 14.3689 14.9507 15.6392 14.879 15.0878 16.7018 14.5634 14.72 13.8091 14.0571 13.9479 14.101 14.2524 15.0724 14.072 14.4096 14.7196 394.032 399.461 366.939 405.475 406.391 397.009 387.125 421.58 396.82 368.528 386.647 376.879 358.332 382.91 412.112 417.376 395.557 369.628 269.223 337.867 335.431 355.796 338.738 323.76 355.715 341.596 365.411 383.993 391.476 403.594 407.174 394.917 443.83 444.634 447.608 430.649 416.331 410.936 448.09 454.214 488.972 486.703 473.075 470.665 507.677 524.518 576.009 542.985 542.97 546.695 540.164 564.333 548.023 578.763 538.075 507.777 531.193 578.709 528.931 445.501 558.822 635.605 620.26 614.819 631.792 655.685 650.393 639.492 678.103 706.906 697.881 701.106 708.742 724.341 738.211 747.35 762.827 783.437 786.517 786.142 784.939 785.827 789.957 803.88 822.802 814.358 808.734 817.187 827.441 839.56 841.253 839.201 824.072 820.994 842.843 848.467 843.01 851.114 861.486 873.345 882.414 887.576 899.065 913.28 912.082 911.732 915.143 922.31 932.805 934.152 934.274 945.543 951.748 948.342 953.789 964.46 964.366 964.217 912.139 913.048 920.296 934.815 933.588 946.529 950.017 953.106 965.133 963.421 969.808 984.594 995.392 1003.69 1013.84 1001.29 1008.96 1020.8 1035.75 1046.84 1088.63 1082.67 1022.74 1057.16 1118.31 1192.91 1405.62 1460.73 1655.81 1862.6 1860.18 1723.2 2127.38 2328.2 1835.75 1942.48 2372.22 2269.49 2379.35 1680.89 2051.8 2575.69 2695.03 2704.75 2729.33 2685.23 2496.14 2196.46 2086 2639.55 2759 2778.28 2797.97 2825.1 2839.27 2816.71 2866.3 2844.24 2852.16 2849.17 2730.54 2421.28 2222.26 2618.25 2925.11 2927.08 2957.19 2950.52 2999.08 3025.79 3031.37 3060.48 3165.8 3079.35 3068.31 3136.49 3172.52 3143.31 3191.61 3129.15 3169.06 3207.83 3211.29 3179.77 3120.45 3212.3 3258.93 3280.08 3287.71 3281.28 3257.17 3254.38 2972.61 2624.85 2580.57 3214.59 3284.63 3280.67 3324.68 3359.39 3330.86 3257.95 3176.62 3230.6 3249.65 3275.49 3343.1 3293.1 3322.94 3308.84 3273.25 3222.28 3169.98 3207.02 3256.91 3317.43 3387.63 3398.35 3294.86 3470.35 3531.89 3462.78 3457.34 3554.64 3558.43 3256.35 3166.66 3226.84 3311.99 3419.34 3281.12 3504.9 3472.05 3512.67 3559.83 3518.13 3527.38 3591.8 3558.82 3557.38 3596.98 3660.81 3666.43 3647.91 3702.24 3697.11 3691.27 3774.22 3796.86 3842.17 3848.98 3787.67 3918.44 3934.83 3905.53 3649.33 3913.78 3940.05 3986.54 3952.44 3981.39 4071.37 4113.54 4031.41 4027.41 3950.17 3933.45 4056.37 4028.32 3932.67 3995.04 4113.98 4036.81 4063.08 4044.94 4176.81 4169.13 4196.48 4219.42 4182.82 4257.86 4135.03 3754.89 4125.09 4339.37 4336.69 4314.84 4344.42 4270.11 4346.05 4341.41 4334.58 4379.45 4411.86 4417.13 4515.54 4545.86 4527.68 4566.16 4601.83 4561.37 4638.31 4604.71 4491.59 4364.51 4321.51 4372.84 4385.75 4481.89 4578.23 4635.02 4645.61 4746.87 4801.76 4903.02 4944.3 4949.27 5029.09 5072.81 5118.88 5189.35 5306.34 5353.18 5319.5 5245.03 5202.77 5111.65 5056.57 5080.15 5083.43 5091.53 5162.08 5222.64 5239.05 5194.82 5221.24 5139.41 5175.88 5173.83 5315.96 5372.79 5436.39 5460 5480.91 5477.6 5626.32 5728.89 5773.46 5674 5692.69 5749.75 0 0 -2.4423 -2.89262 10.7908 0.00039891 2.76387e+09 13.9131 1.5776 0.964375 -1.52803 1.476 0.937999 0.99397 -0.232057 2280.83 -153.513 -0.436022 0.126239 -0.0737613 -0.277841 118 125 126 0.2554 385.331 8.58344 0.00039 0.2568 414.967 8.66817 0.0004 0.2582 362.024 8.16576 0.0004 0.2596 404.537 8.7624 0.0004 0.261 394.087 8.77679 0.0004 0.2624 394.355 8.62987 0.00041 0.2638 402.503 8.47612 0.00041 0.2652 403.583 9.01662 0.00041 0.2666 392.505 8.6269 0.00041 0.268 364.865 8.19 0.00041 0.2694 383.479 8.46872 0.00042 0.27081 359.176 8.31796 0.00042 0.27221 364.835 8.03502 0.00042 0.27361 396.127 8.4109 0.00042 0.27501 410.58 8.86685 0.00042 0.27641 418.988 8.95 0.00043 0.27781 389.403 8.60721 0.00043 0.27921 368.469 8.20681 0.00043 0.28061 266.883 6.75177 0.00043 0.28201 325.695 7.72833 0.00044 0.28341 335.296 7.69223 0.00044 0.28481 356.94 7.99669 0.00044 0.28621 340.143 7.74124 0.00044 0.28761 326.903 7.52063 0.00044 0.28901 371.378 7.99546 0.00045 0.29041 358.351 7.78374 0.00045 0.29181 362.402 8.14248 0.00045 0.29321 380.59 8.42764 0.00045 0.29461 390.465 8.54366 0.00045 0.29601 397.679 8.7329 0.00046 0.29741 412.947 8.7891 0.00046 0.29881 403.917 8.59723 0.00046 0.30021 453.353 9.37193 0.00046 0.30161 449.061 9.38486 0.00047 0.30301 444.124 9.4327 0.00047 0.30442 425.833 9.1609 0.00047 0.30582 416.308 8.93348 0.00047 0.30722 405.467 8.84831 0.00047 0.30862 430.7 9.44047 0.00048 0.31002 440.64 9.53926 0.00048 0.31142 497.134 10.1055 0.00048 0.31282 504.766 10.0683 0.00048 0.31422 465.786 9.8454 0.00049 0.31562 456.956 9.80613 0.00049 0.31702 509.062 10.4138 0.00049 0.31842 524.142 10.6933 0.00049 0.31982 572.988 11.5574 0.00049 0.32122 556.9 11.0016 0.0005 0.32262 545.225 11.0013 0.0005 0.32402 546.638 11.0637 0.0005 0.32542 540.672 10.9544 0.0005 0.32682 593.616 11.3603 0.0005 0.32822 554.735 11.086 0.00051 0.32962 584.548 11.604 0.00051 0.33102 516.884 10.9194 0.00051 0.33242 512.928 10.4154 0.00051 0.33382 527.34 10.8045 0.00052 0.33522 588.93 11.6031 0.00052 0.33662 525.459 10.7667 0.00052 0.33803 455.516 9.39879 0.00052 0.33943 584.116 11.2674 0.00052 0.34083 639.9 12.5728 0.00053 0.34223 627.725 12.31 0.00053 0.34363 622.096 12.217 0.00053 0.34503 636.7 12.5074 0.00053 0.34643 644.368 12.9179 0.00053 0.34783 673.577 12.8268 0.00054 0.34923 659.329 12.6395 0.00054 0.35063 693.109 13.3049 0.00054 0.35203 699.075 13.8042 0.00054 0.35343 718.284 13.6475 0.00055 0.35483 703.818 13.7034 0.00055 0.35623 726.677 13.8361 0.00055 0.35763 751.271 14.1075 0.00055 0.35903 758.126 14.3494 0.00055 0.36043 742.733 14.5091 0.00056 0.36183 753.919 14.7798 0.00056 0.36323 785.885 15.1413 0.00056 0.36463 784.249 15.1953 0.00056 0.36603 781.079 15.1888 0.00057 0.36743 793.174 15.1676 0.00057 0.36883 761.662 15.1832 0.00057 0.37023 788.587 15.2558 0.00057 0.37164 793.13 15.5006 0.00057 0.37304 823.69 15.8339 0.00058 0.37444 838.635 15.6851 0.00058 0.37584 784.58 15.586 0.00058 0.37724 815.449 15.7349 0.00058 0.37864 805.054 15.9157 0.00058 0.38004 848.36 16.1296 0.00059 0.38144 836.684 16.1595 0.00059 0.38284 870.026 16.1233 0.00059 0.38424 824.957 15.8563 0.00059 0.38564 820.376 15.802 0.0006 0.38704 850.793 16.1876 0.0006 0.38844 838.8 16.287 0.0006 0.38984 836.519 16.1906 0.0006 0.39124 828.312 16.3338 0.0006 0.39264 884.019 16.5173 0.00061 0.39404 865.918 16.7273 0.00061 0.39544 898.736 16.888 0.00061 0.39684 893.462 16.9795 0.00061 0.39824 887.097 17.1834 0.00061 0.39964 919.947 17.4359 0.00062 0.40104 954.006 17.4146 0.00062 0.40244 890.205 17.4084 0.00062 0.40384 914.449 17.469 0.00062 0.40525 928.071 17.5965 0.00063 0.40665 921.138 17.7832 0.00063 0.40805 922.996 17.8072 0.00063 0.40945 928.428 17.8094 0.00063 0.41085 929.923 18.01 0.00063 0.41225 973.015 18.1206 0.00064 0.41365 961.079 18.0599 0.00064 0.41505 957.568 18.157 0.00064 0.41645 981.202 18.3472 0.00064 0.41785 979.558 18.3456 0.00065 0.41925 976.31 18.3429 0.00065 0.40099 899.528 17.049 0.00055 0.40298 926.093 17.0655 0.00055 0.40498 919.203 17.1971 0.00056 0.40697 922.632 17.4608 0.00056 0.40897 948.323 17.4386 0.00056 0.41097 948.974 17.6737 0.00056 0.41296 948.283 17.7371 0.00057 0.41496 954.93 17.7932 0.00057 0.41696 972.868 18.0118 0.00057 0.41895 945.433 17.9807 0.00058 0.42095 955.849 18.0969 0.00058 0.42294 996.619 18.3658 0.00058 0.42494 1015.34 18.5622 0.00058 0.42694 993.678 18.7132 0.00059 0.42893 1043.19 18.898 0.00059 0.43093 989.081 18.6695 0.00059 0.43293 1036.13 18.8092 0.00059 0.43492 984.351 19.0247 0.0006 0.43692 1011.96 19.297 0.0006 0.43891 1040.66 19.4989 0.0006 0.44091 1117.83 20.2605 0.00061 0.44291 1035.43 20.1519 0.00061 0.4449 981.792 19.0601 0.00061 0.4469 1064.66 19.687 0.00061 0.44889 1132.86 20.8019 0.00062 0.45089 1243.72 22.1634 0.00062 0.45289 1417.4 26.0532 0.00062 0.45488 1501.18 27.0624 0.00062 0.45688 1666.65 30.6377 0.00063 0.45888 1873.54 34.4317 0.00063 0.46087 1891.53 34.3874 0.00063 0.46287 1615.3 31.8738 0.00064 0.46486 2111.56 39.2942 0.00064 0.46686 2249.85 42.9842 0.00064 0.46886 1882.85 33.939 0.00064 0.47085 1961.06 35.8983 0.00065 0.47285 2403.98 43.7932 0.00065 0.47485 2309.37 41.9052 0.00065 0.47684 2289.28 43.9243 0.00065 0.47884 1677.21 31.0978 0.00066 0.48083 2059.52 37.9058 0.00066 0.48283 2591.95 47.5337 0.00066 0.48483 2699.57 49.7282 0.00067 0.48682 2731.71 49.907 0.00067 0.48882 2759.08 50.359 0.00067 0.49082 2695.84 49.5479 0.00067 0.49281 2454.94 46.0712 0.00068 0.49481 2181.65 40.5633 0.00068 0.4968 2020.61 38.534 0.00068 0.4988 2593.86 48.708 0.00068 0.5008 2686.61 50.9047 0.00069 0.50279 2775.25 51.2593 0.00069 0.50479 2760.11 51.6213 0.00069 0.50678 2733.92 52.1204 0.0007 0.50878 2849.44 52.3809 0.0007 0.51078 2842.68 51.966 0.0007 0.51277 2920.27 52.8781 0.0007 0.51477 2874.35 52.4724 0.00071 0.51677 2895.61 52.618 0.00071 0.51876 2852.23 52.563 0.00071 0.52076 2765.5 50.3813 0.00072 0.52275 2429.61 44.6951 0.00072 0.52475 2224.42 41.0373 0.00072 0.52675 2620.77 48.3163 0.00072 0.52874 2951.65 53.9597 0.00073 0.53074 2906.04 53.9961 0.00073 0.53274 2876.76 54.55 0.00073 0.53473 2952.67 54.4273 0.00073 0.53673 2950.54 55.3205 0.00074 0.53872 2965.07 55.8119 0.00074 0.54072 3043.09 55.9144 0.00074 0.54272 2991.59 56.45 0.00075 0.54471 3094.27 58.3876 0.00075 0.54671 3030.52 56.7971 0.00075 0.5487 3123.66 56.5941 0.00075 0.5507 3141.06 57.8483 0.00076 0.5527 3108.23 58.5112 0.00076 0.55469 3118.62 57.9738 0.00076 0.55669 3101.06 58.8624 0.00076 0.55869 2931.61 57.7133 0.00077 0.56068 3136.16 58.4475 0.00077 0.56268 3244.58 59.1609 0.00077 0.56467 3237.62 59.2245 0.00078 0.56667 3102.25 58.6447 0.00078 0.56867 3082.72 57.5532 0.00078 0.57066 3173.66 59.2431 0.00078 0.57266 3263.05 60.1011 0.00079 0.57466 3181.63 60.4902 0.00079 0.57665 3291.79 60.6306 0.00079 0.57865 3322.6 60.5124 0.00079 0.58064 3146.7 60.0686 0.0008 0.58264 3245.52 60.0174 0.0008 0.58464 2933.56 54.8336 0.0008 0.58663 2656.83 48.4377 0.00081 0.58863 2598.47 47.6234 0.00081 0.59063 3251.82 59.2852 0.00081 0.59262 3305.26 60.574 0.00081 0.59462 3371.4 60.5011 0.00082 0.59661 3272.57 61.3108 0.00082 0.59861 3447.91 61.9495 0.00082 0.60061 3421.84 61.4245 0.00082 0.6026 3316.73 60.083 0.00083 0.6046 3167.2 58.5867 0.00083 0.60659 3282.21 59.5798 0.00083 0.60859 3357.28 59.9303 0.00084 0.61059 3185.88 60.4057 0.00084 0.61258 3356.79 61.6498 0.00084 0.61458 3316.12 60.7298 0.00084 0.61658 3295.99 61.2789 0.00085 0.61857 3306.41 61.0194 0.00085 0.62057 3231.71 60.3646 0.00085 0.62256 3142.39 59.4268 0.00085 0.62456 3232.97 58.4645 0.00086 0.62656 3259.9 59.146 0.00086 0.62855 3388.85 60.0638 0.00086 0.63055 3393.45 61.1775 0.00087 0.63255 3303.09 62.4692 0.00087 0.63454 3336.06 62.6664 0.00087 0.63654 3412.77 60.7622 0.00087 0.63853 3555.22 63.9913 0.00088 0.64053 3571.73 65.1237 0.00088 0.64253 3532.11 63.852 0.00088 0.64452 3472.02 63.752 0.00089 0.64652 3645.16 65.5425 0.00089 0.64851 3388.63 65.6122 0.00089 0.62138 3202.51 60.0536 0.00082 0.62438 3139.21 58.4035 0.00083 0.62738 3132.49 59.5106 0.00083 0.63038 3299.36 61.0774 0.00083 0.63338 3352.04 63.0527 0.00084 0.63638 3237.76 60.5093 0.00084 0.63938 3506.98 64.6271 0.00085 0.64238 3469.11 64.0226 0.00085 0.64538 3546.81 64.7701 0.00085 0.64838 3545.84 65.6379 0.00086 0.65138 3527.95 64.8705 0.00086 0.65438 3559.46 65.0407 0.00087 0.65738 3555.52 66.2264 0.00087 0.66038 3568.26 65.6194 0.00087 0.66338 3698.06 65.5928 0.00088 0.66638 3624.61 66.3216 0.00088 0.66938 3550.23 67.4964 0.00089 0.67238 3603.34 67.5997 0.00089 0.67538 3679.33 67.259 0.00089 0.67838 3780.37 68.2588 0.0009 0.68138 3702.54 68.1644 0.0009 0.68438 3658.31 68.0569 0.00091 0.68738 3734.82 69.5836 0.00091 0.69037 3757.03 70.0001 0.00091 0.69337 3694.49 70.8342 0.00092 0.69637 3902.62 70.9594 0.00092 0.69937 3797.64 69.8311 0.00093 0.70237 3823.94 72.238 0.00093 0.70537 4023.89 72.5396 0.00093 0.70837 3897.63 72.0004 0.00094 0.71137 3610.63 67.285 0.00094 0.71437 3776.05 72.1522 0.00095 0.71737 3973.8 72.6357 0.00095 0.72037 3973.9 73.4914 0.00095 0.72337 3952.47 72.8637 0.00096 0.72637 3909.28 73.3965 0.00096 0.72937 4025.82 75.0529 0.00097 0.73237 4203.81 75.8291 0.00097 0.73538 3912.24 74.3172 0.00097 0.73838 4021.44 74.2437 0.00098 0.74138 4002.42 72.822 0.00098 0.74438 3784.3 72.5142 0.00099 0.74738 4187.21 74.7767 0.00099 0.75038 3987.16 74.2605 0.00099 0.75338 3851.1 72.4999 0.001 0.75638 4020.09 73.6479 0.001 0.75938 3972.41 75.8372 0.00101 0.76238 3884.16 74.4167 0.00101 0.76538 4095.84 74.9003 0.00101 0.76838 4054.86 74.5664 0.00102 0.77138 4190.07 76.9937 0.00102 0.77438 4291.91 76.8523 0.00103 0.77738 4182.81 77.3558 0.00103 0.78038 4245.19 77.778 0.00103 0.78338 4168.41 77.1043 0.00104 0.78638 4426.67 78.4857 0.00104 0.78938 4183.01 76.2246 0.00104 0.79238 3826.15 69.2278 0.00105 0.79538 4211.94 76.0417 0.00105 0.79838 4402.76 79.9861 0.00106 0.80138 4276.79 79.9368 0.00106 0.80438 4223.26 79.5345 0.00106 0.80738 4290.32 80.0792 0.00107 0.81038 4245.98 78.7112 0.00107 0.81338 4338.01 80.1091 0.00108 0.81637 4434.61 80.0237 0.00108 0.81937 4457.24 79.8979 0.00108 0.82237 4229.82 80.7239 0.00109 0.82537 4387.46 81.3205 0.00109 0.82837 4517.93 81.4176 0.0011 0.83137 4281.86 83.2293 0.0011 0.83437 4472.23 83.7875 0.0011 0.83737 4434.61 83.4527 0.00111 0.84037 4711.65 84.1611 0.00111 0.84337 4420.49 84.8179 0.00112 0.84637 4430.05 84.073 0.00112 0.84937 4618.07 85.4894 0.00112 0.85237 4577.54 84.8708 0.00113 0.85537 4510.04 82.7884 0.00113 0.85837 4488.5 80.4489 0.00114 0.86138 4221.64 79.6574 0.00114 0.86438 4483.26 80.6022 0.00114 0.86738 4487.68 80.8399 0.00115 0.87038 4461.55 82.6098 0.00115 0.87338 4672.54 84.3834 0.00116 0.87638 4769.66 85.4289 0.00116 0.87938 4702.65 85.6238 0.00116 0.88238 4971.2 87.488 0.00117 0.88538 4748.56 88.4987 0.00117 0.88838 5000.02 90.3628 0.00118 0.89138 4924.36 91.123 0.00118 0.89438 4854.49 91.2145 0.00118 0.89738 5278.42 92.6841 0.00119 0.90038 5117.8 93.4889 0.00119 0.90338 5032.77 94.3372 0.0012 0.90638 5219.73 95.6347 0.0012 0.90938 5336.33 97.7888 0.0012 0.91238 5306.89 98.6513 0.00121 0.91538 5395.14 98.031 0.00121 0.91838 5457.93 96.6599 0.00122 0.92138 5171.49 95.8818 0.00122 0.92438 5159.14 94.2041 0.00122 0.92738 5043.59 93.1899 0.00123 0.93038 5099.44 93.6241 0.00123 0.93338 4896.97 93.6844 0.00124 0.93638 5149.88 93.8336 0.00124 0.93938 5244.74 95.1326 0.00124 0.94238 5209.98 96.2476 0.00125 0.94537 5225.33 96.5499 0.00125 0.94837 4960.65 95.7355 0.00126 0.95137 5341.81 96.2219 0.00126 0.95437 5215.1 94.7153 0.00126 0.95737 4836.98 95.3868 0.00127 0.96037 5174.64 95.349 0.00127 0.96337 5436.03 97.966 0.00128 0.96637 5465.39 99.0123 0.00128 0.96937 5406.05 100.183 0.00128 0.97237 5340.71 100.618 0.00129 0.97537 5556.57 101.003 0.00129 0.97837 5541.71 100.942 0.0013 0.98137 5613.69 103.681 0.0013 0.98438 5722.22 105.569 0.0013 0.98738 5745.09 106.39 0.00131 0.99038 5752.74 104.559 0.00131 0.99338 5817.89 104.903 0.00132 0.99638 5773.11 105.953 0.00132
8 0.474965 0.474965 0 0 20.675 0.0201909 20.1035 0.020663 19.0058 0.0194673 18.1639 0.0197263 17.6736 0.0200147 17.3219 0.0204593 17.0109 0.0196834 16.5998 0.0207045 16.1372 0.0201246 15.8508 0.0200315 20.2632 0.0203979 19.9301 0.0201031 19.7661 0.0200099 19.6159 0.0198648 19.5065 0.0202737 18.5513 0.0197947 18.1675 0.0198983 17.913 0.0198435 17.8697 0.0200056 17.7684 0.0199861 17.6807 0.0201158 17.5173 0.0203151 17.8832 0.0202264 17.5314 0.0200628 15.9057 0.0201862 16.1184 0.0207149 16.4358 0.0194829 17.1154 0.0207477 21.4588 0.0274308 20.8447 0.0221534 19.7903 0.0200604 18.2923 0.0202987 17.7092 0.0204601 17.2962 0.0200927 17.11 0.0192473 16.045 0.0196383 16.3727 0.0196179 16.8732 0.0197083 17.8791 0.0196387 19.8193 0.0203935 17.7152 0.0199471 18.2034 0.0196606 20.8038 0.0200711 17.1024 0.0194243 17.3853 0.020187 16.0293 0.0201066 16.3896 0.0199603 16.1748 0.0199286 16.5093 0.0202696 16.6259 0.0196464 18.2651 0.0201064 16.381 0.019673 16.9263 0.0194894 17.4007 0.0203226 1 0 0 24.7 25 -2.44 -3.08 -4.14 -2.89 -3.29 -3.51 10.79 10.88 10.84 -0.28 -1.48 0.3 1 -1 3 0.5 0.67 -0.5 -1.04 0.4 0.1 0.474965 8.10189 6.23581 -0.53131 2.30896 11.6807 8.48108 8.09438 -0.53131 -0.53131 -26.47 -3.00097 11.6807 11.5568 11.5229 46.3516 45.5425 20.6674 20.0685 19.0354 18.1789 17.6728 17.2972 17.0283 16.5622 16.1305 15.8491 20.2473 19.927 19.7674 19.6259 19.4928 18.5628 18.1731 17.9217 17.8695 17.7693 17.6746 17.5005 17.8712 17.5281 15.8956 16.0802 16.4654 17.0793 21.4567 20.8453 19.7907 18.2766 17.6846 17.2914 17.1526 793.032 793.032 793.032 16.0648 16.3937 16.8893 17.8991 19.7982 17.718 18.222 20.8026 17.1342 17.3752 16.0235 16.3998 16.1787 16.4948 16.6453 18.2593 16.3989 16.9544 17.3833 6.3757 6.56255 6.90294 6.87053 6.8405 7.2276 7.5095 7.87608 7.87129 7.78483 7.88178 7.76674 7.51399 7.59769 7.88021 8.53285 8.36296 8.28341 8.60335 8.68084 8.74889 8.9782 9.31664 9.38249 9.56546 10.1674 10.3545 10.117 10.1183 10.3715 10.2764 10.8336 10.6766 11.1143 10.8685 11.0794 11.6859 11.8638 11.743 11.8105 12.0402 12.3133 12.1005 12.1454 12.7048 12.8499 12.697 12.7814 13.0123 13.5541 13.2901 12.9508 12.7658 13.8693 13.4039 13.1654 13.4971 14.0461 14.5687 14.4933 14.3426 14.1216 12.664 12.5286 13.4957 13.7285 14.1939 13.7248 14.0292 13.5845 14.5783 14.2925 14.8155 15.7507 15.4098 16.3146 16.3653 16.4951 16.3335 16.8119 16.9505 17.6514 17.5146 17.3584 17.0654 17.3755 17.7299 18.5114 18.6956 19.6721 19.7731 19.8537 19.4662 19.5932 20.3611 20.9153 22.2987 22.8294 22.2141 22.5892 22.9887 22.9062 23.174 23.3081 23.1461 23.762 23.93 22.5766 23.1127 24.0955 25.1161 24.741 21.4884 23.1174 26.1399 27.1061 26.8023 26.4734 23.1352 24.2158 22.4945 23.3282 24.8569 24.4434 22.2929 25.9298 27.1171 26.5341 26.4434 28.0836 28.403 28.7075 30.4579 30.7054 30.8237 31.1728 31.7679 32.3349 32.8293 33.6171 34.2651 34.734 35.1366 35.6027 36.1371 36.8616 37.3834 37.7506 38.1604 38.7454 39.4243 39.9482 40.0093 40.0291 41.1038 41.5807 41.956 42.9859 43.9271 44.7634 45.355 45.9852 46.5675 46.9988 47.3882 47.7088 47.9098 48.5586 49.3174 50.1395 50.7897 51.4356 52.105 52.6529 53.3189 54.1298 55.1461 55.8348 56.2548 57.3226 57.5916 57.3353 57.9569 58.9115 60.0941 60.9949 61.8946 63.7243 63.7441 62.8324 62.9183 68.0538 70.3497 74.0746 85.5416 91.0588 96.9506 108.061 118.136 119.346 105.394 122.264 140.069 149.086 119.073 117.856 156.245 153.625 154.206 158.94 119.044 123.539 166.968 175.668 179.695 180.349 182.939 183.001 179.76 167.06 150.053 141.412 174.092 188.542 193.158 195.132 196.827 198.459 200.207 200.87 201.842 204.022 203.872 203.984 205.251 202.234 193.499 178.256 166.224 175.281 212.96 214.895 217.205 200.637 201.647 204.203 203.877 204.274 194.782 172.95 172.723 214.252 216.977 221.655 225.092 227.804 229.549 234.963 238.839 237.853 242.115 245.646 247.065 249.191 250.695 254.482 256.64 255.921 258.918 263.879 266.618 268.291 268.98 268.587 246.389 214.234 248.761 276.378 278.849 284.517 287.829 286.056 282.421 288.224 289.481 296.184 296.389 299.307 299.947 299.026 297.014 301.132 305.501 311.122 317.411 311.191 323.905 328.183 324.004 332.973 335.042 335.453 336.788 340.713 345.079 345.476 347.956 351.171 356.339 359.939 360.705 362.65 367.53 369.849 372.058 375.105 379.283 383.457 389.46 390.495 392.598 395.183 401.93 404.587 404.101 399.301 403.595 413.427 416.521 420.806 423.3 425.009 430.224 436.184 440.2 440.26 442.664 440.421 442.068 442.813 450.761 454.603 453.735 450.841 460.602 467.43 461.06 466.879 468.136 472.035 480.428 481.256 486.167 488.567 493.088 491.872 499.654 496.847 466.24 424.496 502.43 515.812 519.688 522.25 522.679 527.798 527.965 534.23 535.727 0 0 -2.53255 -2.98277 10.8179 0.000100216 1.08343e+10 13.8978 1.91121 0.966119 -5.19381 -2.35541 0.2 2.12663 -7.64963 2850.23 -126.02 -0.511631 0.111078 -0.0889225 -1.29221 118 125 126 0.2554 8.21089 4.58324 0.00039 0.2568 13.1487 4.58333 0.0004 0.2582 -1.3316 4.5835 0.0004 0.2596 5.60986 4.58348 0.0004 0.261 4.02484 4.58347 0.0004 0.2624 1.36139 4.58367 0.00041 0.2638 10.4305 4.58382 0.00041 0.2652 9.09844 4.58403 0.00041 0.2666 3.55628 4.58403 0.00041 0.268 9.49307 4.58398 0.00041 0.2694 3.95495 4.58404 0.00042 0.27081 -0.0619619 4.58397 0.00042 0.27221 0.31422 4.58383 0.00042 0.27361 8.40724 4.58387 0.00042 0.27501 5.28645 4.58403 0.00042 0.27641 4.11962 4.58443 0.00043 0.27781 11.4127 4.58432 0.00043 0.27921 2.41059 4.58428 0.00043 0.28061 8.73666 4.58448 0.00043 0.28201 5.43725 4.58452 0.00044 0.28341 11.1125 4.58457 0.00044 0.28481 11.2471 4.58472 0.00044 0.28621 11.6589 4.58495 0.00044 0.28761 13.9879 4.58499 0.00044 0.28901 3.56162 4.58512 0.00045 0.29041 13.5003 4.58556 0.00045 0.29181 5.96272 4.5857 0.00045 0.29321 11.5091 4.58552 0.00045 0.29461 9.37928 4.58552 0.00045 0.29601 10.3771 4.58572 0.00046 0.29741 19.6375 4.58564 0.00046 0.29881 7.14353 4.58608 0.00046 0.30021 3.47269 4.58595 0.00046 0.30161 7.40388 4.58631 0.00047 0.30301 13.3303 4.58611 0.00047 0.30442 10.2948 4.58628 0.00047 0.30582 12.5868 4.58679 0.00047 0.30722 15.0421 4.58694 0.00047 0.30862 9.95787 4.58684 0.00048 0.31002 11.3964 4.5869 0.00048 0.31142 8.47581 4.5871 0.00048 0.31282 13.3171 4.58735 0.00048 0.31422 14.7244 4.58715 0.00049 0.31562 14.751 4.58719 0.00049 0.31702 9.19901 4.58771 0.00049 0.31842 8.26433 4.58785 0.00049 0.31982 8.43743 4.5877 0.00049 0.32122 8.77225 4.58778 0.0005 0.32262 9.89186 4.588 0.0005 0.32402 21.0568 4.58853 0.0005 0.32542 6.57949 4.58827 0.0005 0.32682 8.86163 4.58794 0.0005 0.32822 9.31324 4.58777 0.00051 0.32962 21.3214 4.58885 0.00051 0.33102 13.6584 4.58838 0.00051 0.33242 2.02534 4.58815 0.00051 0.33382 12.9142 4.58848 0.00052 0.33522 17.9537 4.58904 0.00052 0.33662 17.8099 4.58959 0.00052 0.33803 21.1219 4.58951 0.00052 0.33943 10.5457 4.58935 0.00052 0.34083 15.0985 4.58911 0.00053 0.34223 3.82733 4.58767 0.00053 0.34363 15.402 4.58754 0.00053 0.34503 24.3189 4.58847 0.00053 0.34643 10.6947 4.58871 0.00053 0.34783 15.5608 4.58919 0.00054 0.34923 10.0199 4.58871 0.00054 0.35063 23.2286 4.58902 0.00054 0.35203 19.37 4.58856 0.00054 0.35343 13.9365 4.5896 0.00055 0.35483 13.4699 4.58929 0.00055 0.35623 16.1173 4.58986 0.00055 0.35763 11.3794 4.59091 0.00055 0.35903 14.7717 4.59052 0.00055 0.36043 15.501 4.59158 0.00056 0.36183 11.8063 4.59164 0.00056 0.36323 21.24 4.5918 0.00056 0.36463 7.54446 4.5916 0.00056 0.36603 23.1192 4.59219 0.00057 0.36743 12.4303 4.59236 0.00057 0.36883 12.5524 4.59326 0.00057 0.37023 18.1608 4.59308 0.00057 0.37164 15.2736 4.59288 0.00057 0.37304 17.024 4.59251 0.00058 0.37444 21.5938 4.5929 0.00058 0.37584 15.643 4.59336 0.00058 0.37724 19.5229 4.59441 0.00058 0.37864 18.6144 4.59466 0.00058 0.38004 16.4107 4.59604 0.00059 0.38144 20.0314 4.59619 0.00059 0.38284 20.0127 4.59631 0.00059 0.38424 14.6521 4.59575 0.00059 0.38564 15.2169 4.59593 0.0006 0.38704 25.1709 4.59706 0.0006 0.38844 21.2679 4.59791 0.0006 0.38984 23.3272 4.60011 0.0006 0.39124 25.136 4.60099 0.0006 0.39264 21.2034 4.59997 0.00061 0.39404 27.9852 4.60059 0.00061 0.39544 33.0631 4.60126 0.00061 0.39684 17.5791 4.60112 0.00061 0.39824 24.9151 4.60158 0.00061 0.39964 27.9227 4.60181 0.00062 0.40104 25.2476 4.60153 0.00062 0.40244 25.5638 4.6026 0.00062 0.40384 23.9153 4.60289 0.00062 0.40525 23.8055 4.60057 0.00063 0.40665 24.683 4.60147 0.00063 0.40805 25.9809 4.60318 0.00063 0.40945 33.6575 4.60504 0.00063 0.41085 25.9695 4.60435 0.00063 0.41225 13.3425 4.5988 0.00064 0.41365 19.2159 4.60148 0.00064 0.41505 27.1019 4.60697 0.00064 0.41645 26.5039 4.60886 0.00064 0.41785 29.7586 4.60826 0.00065 0.41925 27.0338 4.60761 0.00065 0.40099 23.2762 2.92212 0.00055 0.40298 25.4578 2.92509 0.00055 0.40498 25.3547 2.92042 0.00056 0.40697 25.4842 2.92264 0.00056 0.40897 27.7999 2.92692 0.00056 0.41097 29.3691 2.92573 0.00056 0.41296 25.9544 2.9199 0.00057 0.41496 27.691 2.93007 0.00057 0.41696 28.5262 2.93372 0.00057 0.41895 24.831 2.93191 0.00058 0.42095 28.0478 2.93163 0.00058 0.42294 31.5784 2.9368 0.00058 0.42494 30.1908 2.93784 0.00058 0.42694 25.9097 2.93885 0.00059 0.42893 28.8566 2.94482 0.00059 0.43093 25.2605 2.94569 0.00059 0.43293 27.9045 2.94611 0.00059 0.43492 32.1787 2.94736 0.0006 0.43692 29.9264 2.94951 0.0006 0.43891 27.0403 2.9516 0.0006 0.44091 27.0716 2.95345 0.00061 0.44291 27.5606 2.95646 0.00061 0.4449 33.4482 2.95898 0.00061 0.4469 37.3862 2.96084 0.00061 0.44889 36.7619 2.96245 0.00062 0.45089 32.7552 2.96434 0.00062 0.45289 32.8603 2.96653 0.00062 0.45488 32.3058 2.96955 0.00062 0.45688 40.2451 2.97177 0.00063 0.45888 33.2494 2.97334 0.00063 0.46087 41.1764 2.97511 0.00063 0.46287 35.2382 2.97768 0.00064 0.46486 40.8962 2.9807 0.00064 0.46686 43.3181 2.98307 0.00064 0.46886 37.1808 2.98335 0.00064 0.47085 43.9422 2.98344 0.00065 0.47285 42.1527 2.98839 0.00065 0.47485 43.1707 2.99063 0.00065 0.47684 45.6512 2.99241 0.00065 0.47884 48.3863 2.99736 0.00066 0.48083 44.0133 3.00199 0.00066 0.48283 45.2969 3.00618 0.00066 0.48483 47.94 3.00918 0.00067 0.48682 49.3555 3.01243 0.00067 0.48882 49.7215 3.01546 0.00067 0.49082 44.7905 3.01773 0.00067 0.49281 46.662 3.0198 0.00068 0.49481 54.1225 3.02151 0.00068 0.4968 48.6391 3.02259 0.00068 0.4988 43.8143 3.0261 0.00068 0.5008 48.6529 3.03026 0.00069 0.50279 52.1446 3.03483 0.00069 0.50479 50.7961 3.0385 0.00069 0.50678 56.7246 3.04219 0.0007 0.50878 50.3494 3.04605 0.0007 0.51078 51.0415 3.04924 0.0007 0.51277 54.4332 3.05317 0.0007 0.51477 54.9942 3.05801 0.00071 0.51677 53.2565 3.06416 0.00071 0.51876 58.0233 3.06839 0.00071 0.52076 58.1908 3.07099 0.00072 0.52275 58.6279 3.07769 0.00072 0.52475 59.6515 3.07939 0.00072 0.52675 62.4942 3.07777 0.00072 0.52874 61.3687 3.08171 0.00073 0.53074 60.4099 3.08785 0.00073 0.53274 61.891 3.09557 0.00073 0.53473 60.3531 3.10154 0.00073 0.53673 60.0871 3.10759 0.00074 0.53872 62.5724 3.12011 0.00074 0.54072 62.615 3.12025 0.00074 0.54272 62.2718 3.11397 0.00075 0.54471 65.7388 3.11455 0.00075 0.54671 68.8494 3.15098 0.00075 0.5487 71.7588 3.16804 0.00075 0.5507 76.4723 3.19672 0.00076 0.5527 87.8999 3.29243 0.00076 0.55469 92.1324 3.34226 0.00076 0.55669 95.6031 3.39803 0.00076 0.55869 109.757 3.50991 0.00077 0.56068 119.463 3.61839 0.00077 0.56268 116.573 3.63184 0.00077 0.56467 107.263 3.48229 0.00078 0.56667 122.799 3.66463 0.00078 0.56867 139.886 3.87485 0.00078 0.57066 144.062 3.98737 0.00078 0.57266 120.837 3.6288 0.00079 0.57466 114.331 3.61529 0.00079 0.57665 162.525 4.07931 0.00079 0.57865 149.064 4.04541 0.00079 0.58064 149.612 4.0529 0.0008 0.58264 162.817 4.11449 0.0008 0.58464 119.705 3.62847 0.0008 0.58663 122.135 3.67911 0.00081 0.58863 170.83 4.221 0.00081 0.59063 178.454 4.33916 0.00081 0.59262 183.538 4.39476 0.00081 0.59462 177.981 4.40384 0.00082 0.59661 179.237 4.43994 0.00082 0.59861 179.625 4.44081 0.00082 0.60061 183.132 4.39566 0.00082 0.6026 166.691 4.22223 0.00083 0.6046 152.086 3.99966 0.00083 0.60659 140.216 3.89135 0.00083 0.60859 170.025 4.31756 0.00084 0.61059 187.013 4.51877 0.00084 0.61258 193.947 4.58445 0.00084 0.61458 188.879 4.61273 0.00084 0.61658 194.538 4.6371 0.00085 0.61857 204.741 4.66064 0.00085 0.62057 200.126 4.68594 0.00085 0.62256 199.281 4.69557 0.00085 0.62456 196.263 4.70968 0.00086 0.62656 198.381 4.74144 0.00086 0.62855 206.746 4.73925 0.00086 0.63055 204.532 4.74089 0.00087 0.63255 204.65 4.75941 0.00087 0.63454 205.789 4.71539 0.00087 0.63654 200.984 4.58933 0.00087 0.63853 174.451 4.37483 0.00088 0.64053 163.73 4.21102 0.00088 0.64253 179.966 4.33384 0.00088 0.64452 204.688 4.87299 0.00089 0.64652 214.76 4.90172 0.00089 0.64851 213.639 4.93615 0.00089 0.62138 196.617 4.69217 0.00082 0.62438 205.327 4.70684 0.00083 0.62738 195.481 4.74409 0.00083 0.63038 199.609 4.73932 0.00083 0.63338 207.559 4.74513 0.00084 0.63638 197.799 4.60771 0.00084 0.63938 169.399 4.30195 0.00085 0.64238 168.892 4.29885 0.00085 0.64538 214.363 4.89216 0.00085 0.64838 214.169 4.93274 0.00086 0.65138 222.072 5.00282 0.00086 0.65438 223.934 5.05462 0.00087 0.65738 224.306 5.09569 0.00087 0.66038 238.841 5.12219 0.00087 0.66338 239.826 5.20483 0.00088 0.66638 240.925 5.26434 0.00088 0.66938 239.301 5.24918 0.00089 0.67238 252.158 5.31488 0.00089 0.67538 249.797 5.36958 0.00089 0.67838 248.491 5.39163 0.0009 0.68138 245.427 5.42473 0.0009 0.68438 243.676 5.44818 0.00091 0.68738 259.353 5.50744 0.00091 0.69037 248.726 5.54131 0.00091 0.69337 257.126 5.53002 0.00092 0.69637 257.406 5.57715 0.00092 0.69937 259.726 5.6555 0.00093 0.70237 271.15 5.69893 0.00093 0.70537 275.742 5.7255 0.00093 0.70837 276.092 5.73646 0.00094 0.71137 268.004 5.73021 0.00094 0.71437 251.291 5.38112 0.00095 0.71737 218.629 4.8919 0.00095 0.72037 256.622 5.41802 0.00095 0.72337 275.719 5.85457 0.00096 0.72637 279.593 5.89419 0.00096 0.72937 286.072 5.9854 0.00097 0.73237 287.182 6.03889 0.00097 0.73538 283.522 6.01025 0.00097 0.73838 288.095 5.95163 0.00098 0.74138 293.55 6.04529 0.00098 0.74438 299.41 6.06563 0.00099 0.74738 294.944 6.17445 0.00099 0.75038 296.837 6.1778 0.00099 0.75338 293.715 6.22535 0.001 0.75638 300.328 6.23579 0.001 0.75938 299.976 6.22076 0.00101 0.76238 298.723 6.18798 0.00101 0.76538 300.618 6.25513 0.00101 0.76838 299.98 6.32662 0.00102 0.77138 309.486 6.4189 0.00102 0.77438 310.899 6.52253 0.00103 0.77738 319.455 6.42002 0.00103 0.78038 314.21 6.62998 0.00103 0.78338 335.049 6.70099 0.00104 0.78638 321.671 6.63163 0.00104 0.78938 337.048 6.78069 0.00104 0.79238 339.936 6.81519 0.00105 0.79538 326.139 6.82205 0.00105 0.79838 338.853 6.84432 0.00106 0.80138 333.312 6.90994 0.00106 0.80438 343.978 6.98306 0.00106 0.80738 338.786 6.98971 0.00107 0.81038 345.559 7.03133 0.00107 0.81338 360.968 7.08536 0.00108 0.81637 353.105 7.17238 0.00108 0.81937 363.634 7.23312 0.00108 0.82237 369.481 7.24606 0.00109 0.82537 360.758 7.27892 0.00109 0.82837 375.212 7.36151 0.0011 0.83137 371.062 7.40081 0.0011 0.83437 365.578 7.43829 0.0011 0.83737 382.326 7.49004 0.00111 0.84037 378.421 7.5611 0.00111 0.84337 378.49 7.6322 0.00112 0.84637 392.892 7.73465 0.00112 0.84937 385.791 7.75233 0.00112 0.85237 382.664 7.78829 0.00113 0.85537 383.5 7.83254 0.00113 0.85837 411.815 7.94818 0.00114 0.86138 398.171 7.99378 0.00114 0.86438 401.186 7.98543 0.00114 0.86738 403.298 7.90308 0.00115 0.87038 399.817 7.97674 0.00115 0.87338 402.6 8.14581 0.00116 0.87638 424.307 8.19912 0.00116 0.87938 426.466 8.27303 0.00116 0.88238 425.403 8.31609 0.00117 0.88538 425.859 8.34561 0.00117 0.88838 435.476 8.4358 0.00118 0.89138 436.296 8.53901 0.00118 0.89438 449.835 8.60866 0.00118 0.89738 443.744 8.60971 0.00119 0.90038 443.079 8.65143 0.00119 0.90338 435.54 8.6125 0.0012 0.90638 444.937 8.64108 0.0012 0.90938 444.051 8.65401 0.0012 0.91238 455.857 8.79216 0.00121 0.91538 456.685 8.85902 0.00121 0.91838 467.996 8.8439 0.00122 0.92138 453.735 8.79355 0.00122 0.92438 474.532 8.96355 0.00122 0.92738 459.079 9.08268 0.00123 0.93038 447.707 8.97153 0.00123 0.93338 472.662 9.07308 0.00124 0.93638 451.372 9.09502 0.00124 0.93938 464.267 9.16314 0.00124 0.94238 485.812 9.30999 0.00125 0.94537 479.235 9.32447 0.00125 0.94837 486.255 9.41054 0.00126 0.95137 471.778 9.45261 0.00126 0.95437 507.879 9.53194 0.00126 0.95737 488.602 9.5106 0.00127 0.96037 482.386 9.64725 0.00127 0.96337 483.467 9.59794 0.00128 0.96637 456.369 9.06192 0.00128 0.96937 422.141 8.33675 0.00128 0.97237 496.013 9.69606 0.00129 0.97537 509.672 9.93162 0.00129 0.97837 526.848 9.99995 0.0013 0.98137 525.858 10.0451 0.0013 0.98438 525.257 10.0527 0.0013 0.98738 533.238 10.1431 0.00131 0.99038 528.29 10.146 0.00131 0.99338 534.268 10.2567 0.00132 0.99638 542.062 10.2831 0.00132
9 0.389028 0.389028 0 0 17.8622 0.0193541 17.4459 0.0203452 16.2338 0.0201302 15.7865 0.0200868 15.4321 0.0198389 15.2289 0.0201162 15.052 0.0202223 14.7878 0.0200355 14.6336 0.0196673 14.4888 0.0198375 17.5369 0.0198353 17.3261 0.020234 17.1769 0.0199747 17.0641 0.0203629 16.5302 0.0199506 15.9432 0.0202664 15.7301 0.0194966 15.6814 0.0203982 15.5685 0.0199792 15.4872 0.0195831 15.4512 0.0202719 15.3049 0.0196226 15.5635 0.0200641 15.3839 0.0207577 14.8933 0.020056 15.2105 0.0209058 15.5732 0.019539 16.2123 0.0204623 18.4755 0.0201581 18.0284 0.0191201 17.042 0.0202402 15.8253 0.0201743 15.4528 0.0200233 15.2362 0.0204442 15.1137 0.0199289 14.6475 0.0204549 14.6831 0.0193718 14.9785 0.0201578 15.5948 0.0197647 16.9937 0.0197828 15.4906 0.0203813 15.8049 0.0200432 18.0207 0.0199623 15.0957 0.0197704 15.2614 0.0198934 14.6256 0.020303 14.7528 0.0201573 14.649 0.0197575 14.7447 0.0197826 14.9337 0.02062 15.8504 0.0201015 14.7472 0.0195806 15.0017 0.0199906 15.2449 0.0195717 1 0 0 24.7 25 -2.44 -3.08 -4.14 -2.89 -3.29 -3.51 10.79 10.88 10.84 -0.28 -1.48 0.3 1 -1 3 0.5 0.67 -0.5 -1.04 0.4 0.1 0.389028 8.45216 7.15255 -1.16709 1.10698 11.998 8.9914 8.41777 -1.16709 -1.16709 -3.83844 -1.62973 11.998 11.8468 11.8068 46.4257 46.0121 17.8979 17.4273 16.2267 15.7818 15.4408 15.2226 15.04 14.7859 14.6518 14.4977 17.5459 17.3135 17.1782 17.0446 16.5329 15.9289 15.7578 15.66 15.5697 15.51 15.4365 15.3256 15.5601 15.3435 14.8903 15.1624 15.5988 16.1881 18.4686 18.078 17.0291 15.8159 15.4515 15.2124 15.1176 793.032 793.032 793.032 14.6231 14.7178 14.97 15.6077 17.0056 15.4701 15.8025 18.0227 15.1082 15.2672 14.6093 14.7447 14.6622 14.7566 14.9005 15.8449 14.7702 15.0023 15.2684 118.927 116.989 119.992 124.248 127.434 126.318 127.24 129.273 130.412 131.205 134.309 137.158 139.169 144.291 144.106 141.421 141.58 141.725 142.734 145.53 148.847 147.949 147.011 153.35 156.142 154.689 153.774 156.292 158.479 153.97 157.034 162.382 159.83 158.414 160.668 167.929 168.113 162.443 160.041 170.057 169.209 163.824 164.299 169.634 177.009 174.156 173.959 172.259 155.511 163.214 159.184 171.573 163.299 168.506 157.119 165.874 165.41 169.398 182.996 180.396 190.752 190.541 190.851 185.171 186.105 184.476 202.654 184.838 178.375 186.63 188.901 203.707 201.767 214.448 214.777 213.656 206.462 205.066 216.656 226.8 248.442 252.268 242.384 251.497 254.329 245.438 251.237 241.082 242.881 253.348 229.661 239.831 253.709 261.845 241.761 198.989 223.267 272.927 281.278 272.922 260.932 256.503 281.118 285.434 289.151 294.729 309.668 312.171 310.086 310.348 311.345 313.727 316.521 319.594 322.755 326.923 331.411 334.531 289.041 300.326 312.575 309.612 311.003 313.966 318.043 322.551 328.547 333.926 338.028 343.626 347.149 349.941 354.068 358.275 360.917 361.812 365.913 371.966 375.99 372.775 381.273 385.597 386.373 401.396 413.458 422.14 426.378 428.764 431.316 433.627 433.839 428.032 427.337 437.919 446.535 457.008 467.088 470.606 475.175 481.47 489.885 499.98 503.645 506.942 520.888 512.733 507.545 510.812 525.082 533.742 540.521 557.977 559.679 554.333 550.947 600.333 614.647 645.713 752.317 795.784 868.327 973.786 1069.57 972.775 955.382 1179.84 1266.21 1100.02 928.063 1282.15 1315.53 1310.05 1377.29 963.791 1070.95 1448.68 1541.77 1562.22 1568.69 1573.46 1550.47 1449.56 1305.84 1145.32 1387.61 1582.17 1622.65 1637.24 1639.91 1641.18 1649.72 1654.82 1655.66 1652.06 1643.03 1631.36 1600.35 1538.93 1426.2 1320.14 1289.55 1595.3 1679.64 1701.09 1731.9 1767.24 1784.78 1792.49 1804.82 1816.05 1838.45 1873.28 1851.88 1849.49 1864.63 1900.92 1892.92 1899.09 1924.67 1921.95 1929.8 1943.23 1958.95 1809.51 1835.15 1864.43 1848.86 1879.69 1894.05 1911.1 1922.15 1935.13 1957.92 1961.95 1953.01 1993.15 2012.91 2020.79 2020.96 2006.8 1852.14 1591.96 1825.23 2039.7 2058.88 2102.23 2125.81 2096.46 2086.16 2127.32 2140.97 2165.73 2165.91 2173.15 2165.09 2153.05 2172.7 2197 2217.41 2250.41 2212.26 2286.04 2296.26 2294.2 2332.86 2337.65 2335.4 2345.67 2377.79 2386.78 2402.25 2412.66 2435.85 2457.78 2451.73 2460.55 2488.86 2505.53 2508.82 2525.65 2528.7 2572.98 2581.52 2599.67 2597.94 2626.65 2645.54 2644.66 2643.15 2648.71 2680.56 2692.88 2713.1 2723.35 2727.54 2748.19 2778.07 2784.51 2785.06 2791.46 2779.03 2789.27 2808.86 2840.3 2839.37 2819.32 2861.96 2888.37 2866.45 2894.95 2914.51 2929.97 2938.92 2940.66 2960.11 2971.93 2967.25 2986.69 2993.36 2827.8 2468.31 2960.41 3050.39 3077.44 3085.83 3098.2 3118.98 3127.74 3144.59 3157.87 3171.96 3181.37 3199.57 3193.07 3216.69 3239.56 3249.2 3258.49 3271.23 3294.84 3297.96 3313.44 3325.55 3316.15 3318.94 3324.69 3329.06 3339.93 3354.69 0 0 -2.50189 -2.95452 10.8097 7.68455e-07 7.99795e+09 8.72357 2.14652 0.987223 -2.50933 -0.929427 0.2 1.01957 -1.56917 2481.22 -124.444 -0.488433 0.250297 0.0502969 -6.2807 118 125 126 0.2554 120.728 5.07853 0.00039 0.2568 120.7 5.06324 0.0004 0.2582 119.795 5.08703 0.0004 0.2596 111.398 5.12158 0.0004 0.261 125.878 5.14807 0.0004 0.2624 127.688 5.13873 0.00041 0.2638 126.928 5.14644 0.00041 0.2652 123.105 5.1636 0.00041 0.2666 120.574 5.17331 0.00041 0.268 132.291 5.18012 0.00041 0.2694 129.701 5.20704 0.00042 0.27081 139.4 5.23218 0.00042 0.27221 130.024 5.25016 0.00042 0.27361 138.229 5.29687 0.00042 0.27501 143.125 5.29516 0.00042 0.27641 141.772 5.27055 0.00043 0.27781 148.629 5.27199 0.00043 0.27921 141.758 5.27332 0.00043 0.28061 141.8 5.28254 0.00043 0.28201 148.495 5.30836 0.00044 0.28341 147.413 5.33948 0.00044 0.28481 149.503 5.33101 0.00044 0.28621 141.745 5.32219 0.00044 0.28761 155.655 5.38255 0.00044 0.28901 140.84 5.40971 0.00045 0.29041 156.514 5.39553 0.00045 0.29181 159.48 5.38665 0.00045 0.29321 161.444 5.41118 0.00045 0.29461 158.519 5.43272 0.00045 0.29601 153.929 5.38855 0.00046 0.29741 160.933 5.41847 0.00046 0.29881 163.226 5.4717 0.00046 0.30021 162.886 5.44614 0.00046 0.30161 165.979 5.43209 0.00047 0.30301 163.571 5.4545 0.00047 0.30442 167.51 5.52822 0.00047 0.30582 175.036 5.53011 0.00047 0.30722 173.007 5.47231 0.00047 0.30862 160.256 5.44824 0.00048 0.31002 169.925 5.55025 0.00048 0.31142 172.066 5.54144 0.00048 0.31282 163.964 5.48626 0.00048 0.31422 164.257 5.49108 0.00049 0.31562 169.399 5.54584 0.00049 0.31702 174.665 5.62351 0.00049 0.31842 171.125 5.5932 0.00049 0.31982 167.328 5.59112 0.00049 0.32122 161.589 5.57324 0.0005 0.32262 145.475 5.40355 0.0005 0.32402 161.676 5.48009 0.0005 0.32542 150.866 5.43971 0.0005 0.32682 174.665 5.56606 0.0005 0.32822 169.652 5.48095 0.00051 0.32962 172.921 5.53417 0.00051 0.33102 167.377 5.4193 0.00051 0.33242 171.626 5.50712 0.00051 0.33382 170.059 5.50239 0.00052 0.33522 169.06 5.5434 0.00052 0.33662 177.158 5.68817 0.00052 0.33803 185.193 5.65991 0.00052 0.33943 195.488 5.77398 0.00052 0.34083 190.249 5.77162 0.00053 0.34223 193.829 5.77509 0.00053 0.34363 180.632 5.712 0.00053 0.34503 188.533 5.7223 0.00053 0.34643 174.131 5.70436 0.00053 0.34783 203.242 5.90997 0.00054 0.34923 180.469 5.70834 0.00054 0.35063 170.548 5.63814 0.00054 0.35203 188.689 5.7281 0.00054 0.35343 188.969 5.7533 0.00055 0.35483 208.79 5.92224 0.00055 0.35623 199.135 5.89966 0.00055 0.35763 215.201 6.04954 0.00055 0.35903 201.219 6.0535 0.00055 0.36043 212.163 6.04002 0.00056 0.36183 206.764 5.95452 0.00056 0.36323 210.005 5.93812 0.00056 0.36463 224.562 6.07617 0.00056 0.36603 227.357 6.2005 0.00057 0.36743 248.835 6.47582 0.00057 0.36883 255.544 6.52582 0.00057 0.37023 248.779 6.39744 0.00057 0.37164 247.25 6.51571 0.00057 0.37304 251.652 6.55291 0.00058 0.37444 245.526 6.43684 0.00058 0.37584 254.934 6.5123 0.00058 0.37724 236.63 6.38073 0.00058 0.37864 244.142 6.40384 0.00058 0.38004 251.88 6.54 0.00059 0.38144 235.229 6.23614 0.00059 0.38284 247.623 6.36471 0.00059 0.38424 265.509 6.54475 0.00059 0.38564 277.604 6.6526 0.0006 0.38704 239.395 6.38945 0.0006 0.38844 200.404 5.86755 0.0006 0.38984 229.783 6.15685 0.0006 0.39124 269.348 6.80205 0.0006 0.39264 276.773 6.91653 0.00061 0.39404 275.907 6.80198 0.00061 0.39544 265.696 6.64041 0.00061 0.39684 259.216 6.5816 0.00061 0.39824 287.137 6.91431 0.00061 0.39964 296.485 6.97405 0.00062 0.40104 292.256 7.02582 0.00062 0.40244 298.383 7.10403 0.00062 0.40384 299.757 7.31649 0.00062 0.40525 309.061 7.35249 0.00063 0.40665 301.948 7.32249 0.00063 0.40805 315.144 7.32626 0.00063 0.40945 299.122 7.3406 0.00063 0.41085 321.134 7.37493 0.00063 0.41225 318.59 7.41533 0.00064 0.41365 324.198 7.45992 0.00064 0.41505 331.924 7.50597 0.00064 0.41645 329.167 7.56692 0.00064 0.41785 332.165 7.63287 0.00065 0.41925 344.197 7.67891 0.00065 0.40099 282.797 6.05851 0.00055 0.40298 310.611 6.24198 0.00055 0.40498 317.266 6.44281 0.00056 0.40697 314.373 6.39407 0.00056 0.40897 302.613 6.41694 0.00056 0.41097 310.651 6.46571 0.00056 0.41296 308.411 6.53297 0.00057 0.41496 323.628 6.60755 0.00057 0.41696 335.511 6.70703 0.00057 0.41895 324.516 6.79657 0.00058 0.42095 340.182 6.86504 0.00058 0.42294 340.544 6.95871 0.00058 0.42494 349.493 7.01779 0.00058 0.42694 341.799 7.06468 0.00059 0.42893 350.07 7.13413 0.00059 0.43093 365.923 7.20503 0.00059 0.43293 363.016 7.24964 0.00059 0.43492 364.289 7.26477 0.0006 0.43692 376.821 7.33413 0.0006 0.43891 371.385 7.43673 0.0006 0.44091 370.163 7.50507 0.00061 0.44291 365.311 7.45046 0.00061 0.4449 388.673 7.59498 0.00061 0.4469 389.706 7.66869 0.00061 0.44889 384.249 7.68193 0.00062 0.45089 390.473 7.93901 0.00062 0.45289 420.206 8.14634 0.00062 0.45488 417.225 8.29606 0.00062 0.45688 445.512 8.36928 0.00063 0.45888 426.772 8.41054 0.00063 0.46087 445.635 8.4547 0.00063 0.46287 430.134 8.49471 0.00064 0.46486 427.24 8.49839 0.00064 0.46686 444.002 8.39787 0.00064 0.46886 427.523 8.38586 0.00064 0.47085 434.701 8.5691 0.00065 0.47285 446.8 8.71868 0.00065 0.47485 465.045 8.90091 0.00065 0.47684 491.418 9.07672 0.00065 0.47884 469.114 9.13817 0.00066 0.48083 479.122 9.21804 0.00066 0.48283 481.475 9.32823 0.00066 0.48483 491.583 9.47573 0.00067 0.48682 508.707 9.65299 0.00067 0.48882 488.622 9.71742 0.00067 0.49082 506.982 9.77542 0.00067 0.49281 526.798 10.0211 0.00068 0.49481 513.422 9.87737 0.00068 0.4968 508.291 9.78603 0.00068 0.4988 504.687 9.84355 0.00068 0.5008 532.534 10.0951 0.00069 0.50279 545.433 10.248 0.00069 0.50479 534.058 10.3679 0.00069 0.50678 571.851 10.6771 0.0007 0.50878 547.786 10.7073 0.0007 0.51078 571.524 10.6125 0.0007 0.51277 549.799 10.5525 0.0007 0.51477 591.689 11.4301 0.00071 0.51677 633.379 11.6854 0.00071 0.51876 661.147 12.2407 0.00071 0.52076 723.286 14.1565 0.00072 0.52275 781.722 14.9412 0.00072 0.52475 838.134 16.2543 0.00072 0.52675 975.348 18.1692 0.00072 0.52874 1082.5 19.913 0.00073 0.53074 956.893 18.1508 0.00073 0.53274 957.142 17.8346 0.00073 0.53473 1199.01 21.9248 0.00073 0.53673 1258.99 23.5029 0.00074 0.53872 1085.77 20.4682 0.00074 0.54072 945.557 17.3382 0.00074 0.54272 1257.87 23.7942 0.00075 0.54471 1307.19 24.4047 0.00075 0.54671 1292.39 24.3045 0.00075 0.5487 1399.05 25.5348 0.00075 0.5507 984.218 17.9874 0.00076 0.5527 1090.55 19.9383 0.00076 0.55469 1428.29 26.8418 0.00076 0.55669 1532.18 28.5472 0.00076 0.55869 1538.52 28.922 0.00077 0.56068 1526.75 29.0406 0.00077 0.56268 1565.06 29.128 0.00077 0.56467 1587.39 28.7065 0.00078 0.56667 1441.47 26.8578 0.00078 0.56867 1280.66 24.2275 0.00078 0.57066 1123.2 21.2946 0.00078 0.57266 1359.51 25.7236 0.00079 0.57466 1571.95 29.2876 0.00079 0.57665 1625.28 30.0298 0.00079 0.57865 1624.24 30.2971 0.00079 0.58064 1643.56 30.3462 0.0008 0.58264 1662.26 30.3695 0.0008 0.58464 1661.92 30.526 0.0008 0.58663 1672.06 30.6196 0.00081 0.58863 1653.03 30.6349 0.00081 0.59063 1675.25 30.569 0.00081 0.59262 1668.21 30.4033 0.00081 0.59462 1635.68 30.1893 0.00082 0.59661 1602.65 29.6208 0.00082 0.59861 1536.36 28.495 0.00082 0.60061 1422.92 26.4301 0.00082 0.6026 1330.27 24.4891 0.00083 0.6046 1292.65 23.9295 0.00083 0.60659 1601.22 29.5283 0.00083 0.60859 1666.72 31.0748 0.00084 0.61059 1740.06 31.4682 0.00084 0.61258 1731.56 32.0334 0.00084 0.61458 1759.42 32.6817 0.00084 0.61658 1764.8 33.0036 0.00085 0.61857 1780.14 33.145 0.00085 0.62057 1842.52 33.3713 0.00085 0.62256 1816.35 33.5774 0.00085 0.62456 1835.64 33.9886 0.00086 0.62656 1912.09 34.6279 0.00086 0.62855 1876.91 34.2351 0.00086 0.63055 1860.51 34.1911 0.00087 0.63255 1849.91 34.4691 0.00087 0.63454 1945.25 35.1352 0.00087 0.63654 1856.42 34.9883 0.00087 0.63853 1973.72 35.1016 0.00088 0.64053 1901.44 35.5713 0.00088 0.64253 1928.74 35.5213 0.00088 0.64452 1938.12 35.6655 0.00089 0.64652 2001.28 35.9121 0.00089 0.64851 1968.52 36.2006 0.00089 0.62138 1866.45 33.4575 0.00082 0.62438 1797.73 33.9279 0.00083 0.62738 1860.97 34.4653 0.00083 0.63038 1965.44 34.1797 0.00083 0.63338 1881.61 34.7456 0.00084 0.63638 1882.7 35.0092 0.00084 0.63938 1909.67 35.3222 0.00085 0.64238 1966.8 35.5251 0.00085 0.64538 1911.01 35.7632 0.00085 0.64838 1957.69 36.1817 0.00086 0.65138 2008.68 36.2558 0.00086 0.65438 1968.74 36.0915 0.00087 0.65738 2008.07 36.8287 0.00087 0.66038 2027 37.1915 0.00087 0.66338 2016.91 37.3363 0.00088 0.66638 1981.65 37.3394 0.00088 0.66938 1971.29 37.0793 0.00089 0.67238 1865.32 34.2397 0.00089 0.67538 1615.57 29.4669 0.00089 0.67838 1803.94 33.7459 0.0009 0.68138 2060.13 37.6837 0.0009 0.68438 2070.42 38.0358 0.00091 0.68738 2105.97 38.832 0.00091 0.69037 2089.64 39.2653 0.00091 0.69337 2133.3 38.7261 0.00092 0.69637 2050.78 38.537 0.00092 0.69937 2116.39 39.2931 0.00093 0.70237 2114.16 39.5438 0.00093 0.70537 2057.97 39.9986 0.00093 0.70837 2197.04 40.0019 0.00094 0.71137 2161.42 40.135 0.00094 0.71437 2176.36 39.987 0.00095 0.71737 2147.08 39.7657 0.00095 0.72037 2188.9 40.1268 0.00095 0.72337 2070.46 40.5732 0.00096 0.72637 2185.75 40.9482 0.00096 0.72937 2302.11 41.5546 0.00097 0.73237 2154.76 40.8536 0.00097 0.73538 2248.62 42.2095 0.00097 0.73838 2318.28 42.3971 0.00098 0.74138 2236.9 42.3593 0.00098 0.74438 2355.21 43.0698 0.00099 0.74738 2338.88 43.1578 0.00099 0.75038 2331.39 43.1166 0.00099 0.75338 2375.53 43.3053 0.001 0.75638 2420.34 43.8956 0.001 0.75938 2429.08 44.0609 0.00101 0.76238 2391.81 44.3453 0.00101 0.76538 2460 44.5366 0.00101 0.76838 2420.53 44.9628 0.00102 0.77138 2422.47 45.366 0.00102 0.77438 2403.76 45.2548 0.00103 0.77738 2486.16 45.4169 0.00103 0.78038 2481.4 45.9375 0.00103 0.78338 2485.58 46.2438 0.00104 0.78638 2492.57 46.3043 0.00104 0.78938 2524.45 46.6137 0.00104 0.79238 2516.54 46.6698 0.00105 0.79538 2596.1 47.4839 0.00105 0.79838 2647.81 47.641 0.00106 0.80138 2513.02 47.9747 0.00106 0.80438 2623.78 47.9429 0.00106 0.80738 2655.94 48.4708 0.00107 0.81038 2657.94 48.8181 0.00107 0.81338 2633.95 48.8019 0.00108 0.81637 2567.26 48.7742 0.00108 0.81937 2593.57 48.8764 0.00108 0.82237 2532.95 49.4622 0.00109 0.82537 2711.9 49.6886 0.00109 0.82837 2723.15 50.0605 0.0011 0.83137 2685.15 50.2489 0.0011 0.83437 2759.01 50.326 0.0011 0.83737 2805.56 50.7058 0.00111 0.84037 2831.82 51.2553 0.00111 0.84337 2821.16 51.3738 0.00112 0.84637 2884.3 51.3839 0.00112 0.84937 2789.98 51.5016 0.00112 0.85237 2810.73 51.273 0.00113 0.85537 2878.46 51.4613 0.00113 0.85837 2688.29 51.8216 0.00114 0.86138 2841.76 52.3999 0.00114 0.86438 2841.14 52.3827 0.00114 0.86738 2840.98 52.014 0.00115 0.87038 2839.38 52.7983 0.00115 0.87338 2806.57 53.2841 0.00116 0.87638 2933.99 52.8809 0.00116 0.87938 2817.77 53.405 0.00116 0.88238 2987.4 53.7648 0.00117 0.88538 2909.41 54.0491 0.00117 0.88838 2966.53 54.2138 0.00118 0.89138 2931.3 54.2459 0.00118 0.89438 2990.7 54.6035 0.00118 0.89738 2978.2 54.821 0.00119 0.90038 2953.62 54.735 0.00119 0.90338 3033.79 55.0926 0.0012 0.90638 3016.94 55.2152 0.0012 0.90938 2854.6 52.1699 0.0012 0.91238 2498.33 45.5596 0.00121 0.91538 3049.14 54.6091 0.00121 0.91838 3039.17 56.2644 0.00122 0.92138 3220.65 56.7621 0.00122 0.92438 3166.91 56.9164 0.00122 0.92738 3155.72 57.1438 0.00123 0.93038 3133.02 57.5263 0.00123 0.93338 3095.23 57.6874 0.00124 0.93638 3155.76 57.9973 0.00124 0.93938 3040.05 58.2417 0.00124 0.94238 3185.44 58.5009 0.00125 0.94537 3234.47 58.6741 0.00125 0.94837 3212.58 59.0089 0.00126 0.95137 3173.64 58.8894 0.00126 0.95437 3200.74 59.3239 0.00126 0.95737 3222.03 59.7446 0.00127 0.96037 3108.48 59.922 0.00127 0.96337 3316.62 60.0929 0.00128 0.96637 3226.85 60.3274 0.00128 0.96937 3339.47 60.7617 0.00128 0.97237 3294.09 60.8192 0.00129 0.97537 3382.07 61.104 0.00129 0.97837 3340.51 61.3268 0.0013 0.98137 3279.9 61.1538 0.0013 0.98438 3352.94 61.2053 0.0013 0.98738 3407.63 61.311 0.00131 0.99038 3233.21 61.3915 0.00131 0.99338 3281.51 61.5914 0.00132 0.99638 3305.16 61.863 0.00132
